Time (s), Voltage (V)
0.010008,0.085533
0.020008,0.266373
0.030012,0.124633
0.040012,0.124633
0.050016,0.281036
0.060016,0.109971
0.07002,0.222385
0.08002,-0.021994
0.090024,0.05132
0.100032,0.256598
0.110036,0.017107
0.120036,0.109971
0.130044,0.100195
0.140044,0.065982
0.150048,0.139296
0.160048,0.026882
0.170052,0.217498
0.180056,-0.036657
0.19006,0.031769
0.20006,0.168622
0.210064,-0.002444
0.220072,0.105083
0.230076,0.021994
0.240076,-0.012219
0.250076,0.19306
0.260076,0.046432
0.27008,0.217498
0.280084,0.144184
0.290084,0.144184
0.300084,0.227273
0.310084,0.007331
0.320084,0.173509
0.330084,0.031769
0.340088,0.041544
0.350092,0.158847
0.360092,-0.002444
0.370096,0.144184
0.380096,-0.036657
0.390096,-0.007331
0.400096,0.095308
0.410096,-0.056207
0.4201,0.109971
0.430104,0.017107
0.440108,0.031769
0.450112,0.080645
0.460116,-0.075758
0.47012,0.036657
0.48012,0.100195
0.490124,0.041544
0.500124,0.021994
0.510128,-0.295699
0.520128,-0.261486
0.530132,-0.535191
0.540132,-0.554741
0.550136,-0.574291
0.560144,-0.579179
0.570148,-0.388563
0.580148,-0.3348
0.590148,-0.281036
0.600152,-0.119746
0.610152,-0.207722
0.620156,-0.026882
0.630156,-0.139296
0.640156,-0.07087
0.650156,0.065982
0.660156,-0.134409
0.670156,0.046432
0.68016,-0.036657
0.690164,-0.080645
0.700168,-0.012219
0.710168,-0.144184
0.720176,0.021994
0.730176,-0.075758
0.740176,-0.114858
0.75018,0.061095
0.760184,-0.19306
0.770188,0.075758
0.780188,-0.056207
0.790192,-0.100195
0.800196,0.065982
0.8102,-0.095308
0.8202,0.046432
0.8302,-0.07087
0.8402,-0.021994
0.850208,0.061095
0.860212,-0.105083
0.870212,-0.046432
0.880216,-0.178397
0.89022,-0.061095
0.90022,0.085533
0.91022,-0.100195
0.92022,0.061095
0.930224,-0.041544
0.940228,0.026882
0.950228,0.017107
0.960228,-0.05132
0.970228,0.09042
0.980228,0.026882
0.990228,-0.065982
1.000228,0.114858
1.010232,-0.031769
1.020236,0.100195
1.030236,-0.046432
1.04024,-0.056207
1.05024,0.109971
1.060244,-0.065982
1.070244,0.046432
1.080248,-0.100195
1.090248,-0.041544
1.100248,0.031769
1.110256,-0.100195
1.12026,0.036657
1.130264,-0.075758
1.140268,-0.075758
1.150272,-0.021994
1.160276,-0.139296
1.17028,-0.012219
1.180288,-0.105083
1.190288,-0.129521
1.200288,-0.065982
1.210292,-0.281036
1.220292,-0.075758
1.230296,-0.144184
1.240296,-0.139296
1.250296,-0.085533
1.2603,-0.202835
1.270304,-0.065982
1.280304,-0.085533
1.290304,-0.261486
1.300308,-0.134409
1.310312,-0.202835
1.320312,-0.09042
1.33032,-0.173509
1.34032,-0.19306
1.350324,-0.114858
1.360332,-0.295699
1.370336,-0.095308
1.380336,-0.217498
1.390336,-0.227273
1.40034,-0.041544
1.41034,-0.217498
1.42034,-0.041544
1.430344,-0.217498
1.440348,-0.207722
1.450352,-0.075758
1.460352,-0.197947
1.470352,-0.197947
1.480352,-0.168622
1.490356,-0.173509
1.500356,-0.046432
1.51036,-0.261486
1.520368,0.007331
1.530372,-0.153959
1.540376,-0.19306
1.550376,0.012219
1.56038,-0.173509
1.570384,-0.09042
1.580388,-0.173509
1.590388,-0.139296
1.600388,-0.056207
1.610392,-0.183285
1.620396,0.036657
1.630396,-0.007331
1.640404,-0.149071
1.650408,-0.017107
1.660412,-0.168622
1.670416,0.065982
1.680416,-0.114858
1.690416,-0.129521
1.70042,-0.041544
1.710424,-0.114858
1.720424,-0.031769
1.730428,-0.085533
1.740428,-0.065982
1.750428,0.026882
1.760428,-0.202835
1.770432,-0.021994
1.780436,-0.065982
1.790436,-0.09042
1.800444,-0.031769
1.810448,-0.163734
1.820448,0.007331
1.830448,-0.080645
1.840448,-0.105083
1.850452,0.007331
1.860456,-0.075758
1.87046,-0.046432
1.880464,-0.061095
1.890468,-0.173509
1.900472,-0.036657
1.910472,-0.188172
1.920476,-0.012219
1.93048,-0.114858
1.940484,-0.178397
1.950484,-0.002444
1.960492,-0.241935
1.970496,0.007331
1.980496,-0.085533
1.990496,-0.21261
2.0005,0.002444
2.010504,-0.119746
2.020504,-0.056207
2.030512,-0.095308
2.040516,-0.100195
2.05052,0.061095
2.06052,-0.09042
2.070524,0.002444
2.080532,-0.100195
2.090536,-0.100195
2.100536,0.026882
2.11054,-0.085533
2.120544,-0.041544
2.130552,-0.085533
2.140552,-0.07087
2.150556,0.021994
2.160556,-0.095308
2.17056,0.075758
2.180564,-0.05132
2.190568,-0.227273
2.200568,-0.021994
2.210568,-0.281036
2.220576,-0.408114
2.23058,-0.569404
2.240584,-0.740469
2.250584,-0.564516
2.260584,-0.628055
2.270584,-0.540078
2.280584,-0.549853
2.290584,-0.447214
2.300584,-0.290811
2.310588,-0.305474
2.320588,-0.09042
2.330592,-0.119746
2.340592,-0.21261
2.350592,-0.021994
2.360596,-0.114858
2.370596,-0.036657
2.380596,-0.061095
2.3906,-0.134409
2.4006,0.07087
2.410604,-0.139296
2.420604,-0.031769
2.430608,-0.095308
2.440612,-0.114858
2.450616,0.021994
2.46062,-0.105083
2.47062,-0.046432
2.480624,-0.129521
2.490624,-0.100195
2.500624,-0.036657
2.510624,-0.095308
2.520624,-0.012219
2.530624,-0.026882
2.540632,-0.178397
2.550632,-0.026882
2.560632,-0.085533
2.570632,-0.002444
2.580632,-0.007331
2.590632,-0.105083
2.600632,-0.012219
2.610632,-0.197947
2.620632,0.041544
2.630636,-0.114858
2.64064,-0.105083
2.650644,-0.109971
2.660644,-0.153959
2.670648,-0.056207
2.680652,-0.075758
2.690656,-0.119746
2.700656,0.012219
2.710656,-0.129521
2.720656,0.021994
2.73066,-0.036657
2.740668,-0.114858
2.750668,-0.017107
2.760668,-0.007331
2.770672,-0.012219
2.780672,-0.075758
2.790676,-0.061095
2.80068,0.012219
2.810684,-0.100195
2.820692,-0.012219
2.830696,-0.202835
2.840696,-0.075758
2.8507,0.061095
2.8607,-0.114858
2.870704,-0.080645
2.880708,-0.046432
2.890708,-0.07087
2.900708,0.026882
2.910708,-0.163734
2.920708,-0.041544
2.930712,-0.129521
2.940716,-0.134409
2.95072,-0.119746
2.96072,-0.134409
2.97072,-0.061095
2.98072,-0.07087
2.990732,-0.100195
3.00074,-0.036657
3.010744,-0.134409
3.020744,-0.031769
3.030744,-0.149071
3.040748,-0.153959
3.050756,-0.046432
3.06076,-0.197947
3.07076,0.026882
3.080768,-0.05132
3.090776,-0.109971
3.100776,-0.065982
3.110784,-0.222385
3.120784,-0.095308
3.130784,-0.163734
3.140784,-0.207722
3.150784,-0.080645
3.160792,-0.168622
3.170796,-0.036657
3.180796,-0.100195
3.1908,-0.095308
3.200804,-0.114858
3.210808,-0.05132
3.220808,-0.031769
3.230808,-0.207722
3.240808,-0.178397
3.250812,-0.07087
3.260812,-0.061095
3.270816,-0.173509
3.28082,-0.202835
3.290824,-0.217498
3.300824,-0.085533
3.310824,-0.21261
3.320832,-0.095308
3.330832,-0.100195
3.340836,-0.158847
3.350844,-0.05132
3.360848,-0.241935
3.370852,-0.046432
3.380852,-0.124633
3.390856,-0.19306
3.400856,-0.119746
3.41086,-0.183285
3.42086,-0.05132
3.430864,-0.158847
3.440864,-0.158847
3.450872,-0.065982
3.460872,-0.197947
3.470872,-0.139296
3.480872,-0.129521
3.490872,-0.158847
3.50088,-0.041544
3.510884,-0.173509
3.520884,0.031769
3.530888,-0.031769
3.540888,-0.114858
3.550892,-0.119746
3.560896,-0.080645
3.5709,-0.036657
3.580904,-0.056207
3.590904,-0.183285
3.600904,-0.002444
3.610904,-0.290811
3.620904,-0.339687
3.630904,-0.579179
3.640912,-0.603617
3.650916,-0.500977
3.66092,-0.505865
3.670928,-0.422776
3.680928,-0.388563
3.690936,-0.344575
3.700936,-0.139296
3.71094,-0.266373
3.72094,-0.061095
3.73094,-0.061095
3.74094,-0.124633
3.75094,0.046432
3.76094,-0.041544
3.770944,0.085533
3.780948,-0.065982
3.790952,0.002444
3.800956,0.075758
3.81096,-0.007331
3.82096,0.061095
3.83096,-0.017107
3.84096,-0.021994
3.850968,-0.021994
3.860972,-0.017107
3.870972,0.085533
3.880972,-0.036657
3.890976,0.021994
3.900976,0.065982
3.91098,-0.129521
3.92098,0.056207
3.93098,0.012219
3.940988,-0.080645
3.950988,0.05132
3.960992,-0.075758
3.970996,0.017107
3.981,0.002444
3.991,-0.075758
4.001008,0.080645
4.011008,-0.07087
4.021012,0.007331
4.03102,-0.075758
4.041028,-0.046432
4.051032,0.046432
4.06104,-0.021994
4.07104,-0.036657
4.08104,-0.056207
4.09104,-0.031769
4.101044,0.041544
4.111048,-0.09042
4.121048,-0.075758
4.131048,-0.114858
4.141048,-0.134409
4.151052,-0.105083
4.161052,-0.144184
4.171052,0.061095
4.181056,-0.09042
4.19106,-0.114858
4.20106,-0.012219
4.211068,-0.065982
4.221068,-0.07087
4.231068,-0.085533
4.241068,-0.114858
4.251072,0.075758
4.261076,-0.09042
4.271076,-0.07087
4.281076,-0.036657
4.29108,-0.124633
4.301084,-0.002444
4.311084,-0.046432
4.321084,-0.046432
4.331084,-0.002444
4.341084,-0.124633
4.351088,0.021994
4.361088,-0.197947
4.371092,-0.05132
4.381092,-0.061095
4.391096,-0.144184
4.401096,-0.021994
4.411104,-0.061095
4.421108,-0.163734
4.431108,-0.05132
4.441108,-0.085533
4.451108,0.041544
4.461108,-0.026882
4.471112,-0.046432
4.481112,-0.031769
4.491112,-0.109971
4.501116,0.031769
4.511116,-0.09042
4.52112,-0.007331
4.531124,-0.065982
4.541128,-0.080645
4.551136,-0.002444
4.561136,-0.002444
4.571136,0.012219
4.58114,-0.026882
4.591144,-0.021994
4.601148,0.036657
4.611148,-0.05132
4.621152,0.095308
4.63116,0.124633
4.641164,-0.041544
4.651168,0.041544
4.661172,0.080645
4.671176,0.046432
4.68118,-0.021994
4.69118,0.109971
4.701188,0.129521
4.711192,-0.05132
4.721196,0.056207
4.731196,-0.017107
4.741196,0.002444
4.7512,0.05132
4.761204,0.046432
4.771204,0.109971
4.781204,0.065982
4.791208,0.056207
4.801212,0.149071
4.811216,-0.021994
4.82122,0.021994
4.83122,-0.012219
4.841224,-0.07087
4.851228,0.041544
4.861232,-0.05132
4.871232,0.075758
4.881232,0.05132
4.891236,-0.007331
4.90124,-0.012219
4.911244,0.002444
4.921248,0.119746
4.931252,0.041544
4.94126,-0.05132
4.951268,0.158847
4.961276,-0.017107
4.97128,0.007331
4.981284,0.065982
4.991284,-0.026882
5.001288,0.09042
5.011292,-0.075758
5.021296,0.075758
5.031296,0.056207
5.041304,-0.017107
5.051304,-0.017107
5.061304,-0.21261
5.071308,-0.364125
5.081308,-0.427664
5.091316,-0.696481
5.10132,-0.608504
5.11132,-0.569404
5.121324,-0.642717
5.131332,-0.535191
5.141332,-0.500977
5.151336,-0.246823
5.161336,-0.241935
5.171344,-0.251711
5.181344,-0.153959
5.191348,-0.158847
5.201352,-0.041544
5.211356,-0.041544
5.22136,0.017107
5.231364,-0.002444
5.241368,-0.046432
5.251368,0.075758
5.261368,0.012219
5.271368,0.026882
5.281368,0.095308
5.291372,-0.056207
5.301372,0.119746
5.311376,0.041544
5.321376,0.05132
5.331376,0.061095
5.34138,0.021994
5.35138,0.075758
5.36138,0.05132
5.37138,0.153959
5.381384,0.075758
5.391384,0.002444
5.401384,0.085533
5.411388,0.056207
5.421388,0.061095
5.431392,-0.002444
5.4414,-0.031769
5.451408,0.124633
5.461412,0.012219
5.471412,0.056207
5.48142,0.05132
5.491424,0.017107
5.501428,0.19306
5.511432,0.021994
5.521432,0.095308
5.531432,0.046432
5.541432,0.061095
5.551432,0.05132
5.561436,-0.002444
5.571436,0.021994
5.58144,-0.061095
5.59144,-0.065982
5.601444,-0.007331
5.611444,-0.002444
5.621444,0.085533
5.631444,-0.056207
5.641444,-0.021994
5.651448,0.109971
5.661456,-0.075758
5.67146,0.07087
5.68146,0.007331
5.691464,-0.056207
5.701464,0.085533
5.711468,0.07087
5.721472,0.007331
5.731472,0.021994
5.741472,-0.031769
5.751472,0.129521
5.761472,0.065982
5.77148,0.041544
5.78148,0.021994
5.79148,-0.085533
5.801484,0.065982
5.811488,0.007331
5.821492,0.017107
5.831496,-0.041544
5.8415,0.017107
5.851504,0.056207
5.861504,-0.002444
5.871504,0.085533
5.881508,-0.100195
5.891512,0.046432
5.901512,-0.061095
5.911512,0.095308
5.921512,0.080645
5.931516,-0.002444
5.94152,-0.036657
5.951524,0.007331
5.961524,0.09042
5.971528,-0.017107
5.981532,-0.031769
5.991536,0.046432
6.001536,0.012219
6.011536,0.026882
6.021536,0.061095
6.031536,0.095308
6.04154,0.075758
6.051544,0.202835
6.061544,0.017107
6.071548,0.114858
6.081552,0.183285
6.091556,0.153959
6.10156,0.168622
6.11156,0.031769
6.121564,0.124633
6.131564,0.07087
6.141568,0.109971
6.151572,0.109971
6.161572,0.026882
6.171576,0.09042
6.18158,0.031769
6.19158,0.021994
6.201588,0.095308
6.211588,0.056207
6.221592,0.139296
6.231592,0.124633
6.241592,0.080645
6.251592,0.124633
6.261596,0.007331
6.2716,0.114858
6.281608,0.007331
6.291612,-0.002444
6.301616,0.05132
6.31162,0.036657
6.321624,0.056207
6.331628,-0.056207
6.341628,-0.085533
6.351632,0.095308
6.361636,0.017107
6.371636,-0.095308
6.381636,0.002444
6.39164,-0.002444
6.40164,0.134409
6.411644,-0.007331
6.421648,-0.002444
6.431652,0.017107
6.441656,0.080645
6.45166,-0.056207
6.461664,-0.046432
6.471664,-0.251711
6.481664,-0.500977
6.491664,-0.491202
6.501664,-0.623167
6.511668,-0.422776
6.521668,-0.500977
6.531672,-0.525415
6.541676,-0.413001
6.551676,-0.3739
6.56168,-0.163734
6.57168,-0.222385
6.58168,-0.119746
6.59168,-0.158847
6.60168,-0.109971
6.61168,-0.100195
6.621684,-0.095308
6.631684,0.041544
6.641688,-0.124633
6.651692,-0.002444
6.661696,-0.046432
6.671696,-0.109971
6.681696,-0.061095
6.691696,-0.09042
6.701708,0.002444
6.711708,0.017107
6.721708,-0.065982
6.731712,-0.041544
6.741712,-0.075758
6.75172,-0.085533
6.761724,-0.031769
6.771728,-0.124633
6.781732,-0.124633
6.791736,-0.061095
6.801744,-0.129521
6.811748,-0.075758
6.821752,-0.080645
6.831756,-0.119746
6.84176,-0.153959
6.85176,-0.158847
6.86176,-0.100195
6.87176,-0.05132
6.881764,-0.007331
6.891764,-0.085533
6.901764,0.012219
6.911764,-0.075758
6.921764,0.017107
6.931764,-0.046432
6.941768,0.012219
6.951768,0.026882
6.961772,-0.075758
6.971772,-0.153959
6.981772,-0.207722
6.991776,-0.095308
7.00178,-0.202835
7.01178,-0.153959
7.02178,-0.139296
7.03178,-0.153959
7.04178,-0.21261
7.05178,-0.256598
7.06178,-0.075758
7.071784,-0.246823
7.081792,-0.173509
7.091796,-0.300586
7.1018,-0.109971
7.111804,-0.163734
7.121812,-0.188172
7.131816,-0.23216
7.14182,-0.261486
7.151828,-0.158847
7.161828,-0.149071
7.171832,-0.149071
7.18184,-0.197947
7.19184,-0.183285
7.201844,-0.153959
7.211848,-0.139296
7.221848,-0.207722
7.231852,-0.197947
7.241852,-0.119746
7.251852,-0.080645
7.261852,-0.07087
7.27186,-0.080645
7.281864,-0.134409
7.291864,-0.153959
7.301864,-0.080645
7.311864,-0.065982
7.321864,-0.114858
7.331868,-0.105083
7.341868,-0.134409
7.351868,-0.09042
7.361872,-0.109971
7.371872,-0.061095
7.381876,-0.129521
7.391884,-0.129521
7.401888,-0.163734
7.411888,-0.105083
7.421892,-0.144184
7.431892,-0.19306
7.441896,-0.144184
7.4519,-0.19306
7.4619,-0.124633
7.4719,-0.095308
7.4819,-0.149071
7.4919,-0.075758
7.501904,-0.153959
7.511904,-0.075758
7.521904,-0.114858
7.531904,-0.207722
7.541908,-0.173509
7.551908,-0.163734
7.561912,-0.119746
7.571912,-0.163734
7.581916,-0.320137
7.59192,-0.158847
7.60192,-0.315249
7.61192,-0.09042
7.62192,-0.158847
7.63192,-0.388563
7.641924,-0.183285
7.651928,-0.251711
7.661932,-0.158847
7.671932,-0.300586
7.681932,-0.364125
7.691932,-0.222385
7.701936,-0.329912
7.71194,-0.158847
7.721944,-0.300586
7.731948,-0.427664
7.741948,-0.271261
7.751948,-0.452102
7.761952,-0.256598
7.771956,-0.427664
7.78196,-0.471652
7.791964,-0.3348
7.801964,-0.51564
7.811964,-0.310362
7.821972,-0.422776
7.831972,-0.525415
7.841976,-0.349462
7.85198,-0.535191
7.86198,-0.261486
7.871984,-0.456989
7.881984,-0.61828
7.891984,-0.432551
7.901984,-0.691593
7.911984,-0.383676
7.921984,-0.613392
7.931988,-0.632942
7.941988,-0.432551
7.951988,-0.584066
7.961992,-0.237048
7.971996,-0.491202
7.982,-0.588954
7.992004,-0.344575
8.002009,-0.554741
8.012012,-0.207722
8.022016,-0.481427
8.032016,-0.569404
8.042016,-0.378788
8.052021,-0.588954
8.062021,-0.23216
8.072025,-0.491202
8.082033,-0.549853
8.092037,-0.300586
8.102045,-0.569404
8.112049,-0.241935
8.122056,-0.417889
8.132057,-0.520528
8.142065,-0.305474
8.152069,-0.535191
8.162069,-0.173509
8.172068,-0.393451
8.182072,-0.569404
8.192076,-0.281036
8.202084,-0.51564
8.212093,-0.109971
8.222097,-0.369013
8.2321,-0.505865
8.242104,-0.281036
8.252108,-0.510753
8.262112,-0.144184
8.272116,-0.364125
8.282116,-0.442327
8.292117,-0.251711
8.302117,-0.388563
8.312125,-0.041544
8.322133,-0.23216
8.332137,-0.437439
8.342144,-0.173509
8.352145,-0.408114
8.362149,-0.007331
8.372148,-0.305474
8.382148,-0.349462
8.392148,-0.124633
8.402153,-0.383676
8.412157,-0.031769
8.422161,-0.217498
8.432165,-0.3348
8.442169,-0.153959
8.452169,-0.364125
8.462168,-0.046432
8.472172,-0.251711
8.482176,-0.339687
8.492177,-0.075758
8.502177,-0.417889
8.512181,-0.007331
8.522185,-0.168622
8.532184,-0.344575
8.542184,-0.021994
8.552188,-0.369013
8.562192,-0.012219
8.572193,-0.168622
8.582197,-0.290811
8.592197,-0.046432
8.602196,-0.344575
8.6122,0.017107
8.622204,-0.188172
8.632205,-0.290811
8.642205,-0.07087
8.652204,-0.271261
8.662208,0.105083
8.672212,-0.095308
8.682216,-0.266373
8.69222,0.075758
8.702224,-0.281036
8.712224,0.129521
8.722225,-0.144184
8.732233,-0.197947
8.74224,-0.041544
8.752241,-0.217498
8.762241,-0.012219
8.77224,-0.021994
8.782244,-0.227273
8.792252,0.061095
8.802252,-0.217498
8.812252,0.124633
8.822257,-0.085533
8.832257,-0.217498
