Time (s), Voltage (V)
0.010008,0.002444
0.020012,0.002444
0.030012,-0.002444
0.040016,0.002444
0.050016,0.007331
0.06002,0.002444
0.070024,0.007331
0.080024,-0.002444
0.090032,0.012219
0.100036,0.007331
0.11004,0.002444
0.12004,0.002444
0.130044,0.002444
0.140048,-0.002444
0.150048,0.002444
0.160048,0.002444
0.170048,-0.002444
0.180048,0.002444
0.190056,0.002444
0.200056,0.002444
0.210056,0.002444
0.220056,-0.002444
0.230056,0.007331
0.240068,0.012219
0.250072,0.002444
0.260072,0.002444
0.270072,-0.002444
0.280072,-0.002444
0.290076,0.002444
0.30008,0.002444
0.310088,-0.007331
0.320092,-0.002444
0.330092,-0.007331
0.340096,-0.002444
0.350096,-0.002444
0.360096,-0.007331
0.3701,-0.007331
0.3801,-0.002444
0.390104,-0.007331
0.400108,-0.007331
0.410112,-0.012219
0.420116,-0.012219
0.43012,-0.002444
0.440124,-0.002444
0.450128,-0.002444
0.460128,-0.007331
0.470132,-0.002444
0.480136,-0.002444
0.490136,-0.002444
0.500136,-0.002444
0.510136,-0.002444
0.520136,0.002444
0.53014,-0.002444
0.54014,-0.002444
0.55014,0.002444
0.560144,-0.012219
0.570148,-0.002444
0.580148,-0.002444
0.590152,-0.002444
0.600156,0.002444
0.61016,-0.002444
0.620164,-0.007331
0.630172,0.002444
0.64018,-0.002444
0.65018,-0.002444
0.660188,0.002444
0.670188,-0.007331
0.680188,-0.002444
0.690192,0.002444
0.700192,-0.002444
0.710196,-0.002444
0.720196,0.002444
0.7302,-0.007331
0.740204,-0.002444
0.750212,0.007331
0.760212,-0.007331
0.770212,-0.002444
0.780216,-0.002444
0.790216,-0.002444
0.800216,0.002444
0.81022,-0.007331
0.82022,-0.002444
0.83022,-0.002444
0.84022,-0.007331
0.850224,-0.002444
0.860232,-0.002444
0.870232,-0.007331
0.880232,0.002444
0.890232,0.002444
0.900232,-0.002444
0.910236,-0.002444
0.92024,-0.007331
0.930244,-0.002444
0.940248,0.002444
0.950252,-0.007331
0.960256,-0.007331
0.970256,-0.007331
0.98026,-0.007331
0.99026,-0.002444
1.000268,-0.002444
1.010268,-0.012219
1.020268,-0.002444
1.030268,-0.012219
1.040272,-0.012219
1.050272,-0.002444
1.060276,-0.012219
1.070284,-0.007331
1.080292,-0.007331
1.090296,0.002444
1.1003,0.002444
1.110304,-0.007331
1.120308,-0.012219
1.130312,0.002444
1.140316,-0.007331
1.150316,-0.002444
1.160316,-0.002444
1.17032,-0.002444
1.180324,-0.007331
1.190336,-0.002444
1.200336,0.002444
1.210336,-0.012219
1.22034,-0.002444
1.230344,-0.007331
1.240348,-0.007331
1.250352,-0.002444
1.26036,-0.017107
1.270364,-0.007331
1.280368,-0.007331
1.290368,-0.007331
1.300368,-0.002444
1.310368,-0.002444
1.320368,-0.012219
1.330372,0.002444
1.340372,-0.007331
1.350376,-0.002444
1.36038,-0.007331
1.37038,-0.012219
1.380384,-0.007331
1.390388,0.007331
1.400388,-0.002444
1.410388,-0.007331
1.420392,-0.007331
1.430392,-0.012219
1.440396,-0.002444
1.450396,-0.007331
1.4604,-0.012219
1.470404,-0.012219
1.480404,-0.002444
1.490408,-0.012219
1.500408,-0.002444
1.510412,-0.017107
1.520412,-0.012219
1.530412,-0.007331
1.540416,-0.007331
1.550416,-0.012219
1.56042,-0.007331
1.57042,-0.021994
1.58042,-0.012219
1.590424,-0.012219
1.600428,-0.007331
1.610428,-0.012219
1.620428,-0.012219
1.630432,-0.007331
1.640432,-0.007331
1.650432,-0.007331
1.660432,-0.017107
1.670436,-0.007331
1.68044,-0.012219
1.690448,-0.012219
1.700448,-0.012219
1.710448,-0.017107
1.720452,-0.007331
1.730456,-0.012219
1.74046,-0.012219
1.750464,-0.007331
1.760464,-0.017107
1.770464,-0.017107
1.780464,-0.007331
1.790468,-0.012219
1.800468,-0.012219
1.810472,-0.012219
1.820476,-0.017107
1.83048,-0.007331
1.840484,-0.007331
1.850488,-0.012219
1.860492,-0.012219
1.870496,-0.007331
1.880496,-0.007331
1.890504,-0.007331
1.900504,-0.012219
1.910508,-0.012219
1.920508,-0.007331
1.930508,-0.012219
1.940512,-0.012219
1.950516,-0.007331
1.960516,-0.021994
1.970516,-0.012219
1.98052,-0.012219
1.99052,-0.017107
2.000524,-0.017107
2.010524,-0.012219
2.020524,-0.021994
2.030524,-0.017107
2.040524,-0.017107
2.050524,-0.017107
2.060528,-0.012219
2.070528,-0.017107
2.080532,-0.017107
2.090532,-0.012219
2.10054,-0.017107
2.11054,-0.017107
2.120544,-0.017107
2.130548,-0.017107
2.140548,-0.007331
2.150552,-0.012219
2.160556,-0.017107
2.17056,-0.012219
2.18056,-0.017107
2.19056,-0.007331
2.20056,-0.012219
2.210564,-0.021994
2.220568,-0.021994
2.230572,-0.017107
2.240572,-0.021994
2.250576,-0.017107
2.260576,-0.021994
2.27058,-0.026882
2.28058,-0.021994
2.290588,-0.017107
2.300592,-0.026882
2.310596,-0.017107
2.320596,-0.021994
2.3306,-0.017107
2.3406,-0.017107
2.3506,-0.017107
2.360604,-0.026882
2.370604,-0.021994
2.380604,-0.017107
2.390604,-0.017107
2.400608,-0.012219
2.410612,-0.021994
2.42062,-0.017107
2.43062,-0.012219
2.440624,-0.012219
2.450628,-0.012219
2.460636,-0.017107
2.470644,-0.017107
2.480648,-0.012219
2.490652,-0.017107
2.500656,-0.017107
2.51066,-0.007331
2.52066,-0.017107
2.530664,-0.017107
2.540668,-0.012219
2.550672,-0.017107
2.560672,-0.012219
2.570676,-0.012219
2.580676,-0.017107
2.59068,-0.012219
2.600684,-0.012219
2.610684,-0.021994
2.620684,-0.012219
2.630684,-0.017107
2.640688,-0.012219
2.650688,-0.012219
2.660692,-0.021994
2.6707,-0.017107
2.680708,-0.017107
2.690708,-0.017107
2.700708,-0.012219
2.710708,-0.012219
2.720712,-0.017107
2.730712,-0.012219
2.740716,-0.007331
2.750716,-0.017107
2.760716,-0.012219
2.770716,-0.012219
2.780724,-0.021994
2.790724,-0.007331
2.800728,-0.017107
2.810732,-0.021994
2.820736,-0.017107
2.83074,-0.021994
2.840744,-0.007331
2.850744,-0.017107
2.860744,-0.021994
2.870752,-0.017107
2.880756,-0.017107
2.89076,-0.017107
2.900764,-0.012219
2.910764,-0.021994
2.920764,-0.017107
2.930772,-0.012219
2.940772,-0.017107
2.950776,-0.017107
2.960776,-0.012219
2.97078,-0.012219
2.98078,-0.017107
2.99078,-0.012219
3.00078,-0.021994
3.01078,-0.017107
3.020784,-0.012219
3.030788,-0.012219
3.040788,-0.007331
3.050796,-0.017107
3.060796,-0.021994
3.070796,-0.012219
3.0808,-0.017107
3.090808,-0.007331
3.100808,-0.012219
3.110812,-0.026882
3.120812,-0.017107
3.13082,-0.007331
3.14082,-0.017107
3.15082,-0.012219
3.160824,-0.021994
3.170824,-0.017107
3.180828,-0.017107
3.190832,-0.012219
3.200836,-0.021994
3.210836,-0.012219
3.22084,-0.017107
3.23084,-0.021994
3.240844,-0.012219
3.250852,-0.021994
3.260864,-0.012219
3.270868,-0.007331
3.280868,-0.007331
3.290868,-0.012219
3.300872,-0.012219
3.310872,-0.021994
3.320872,-0.007331
3.330872,-0.017107
3.340872,-0.017107
3.350876,-0.012219
3.360876,-0.017107
3.37088,-0.012219
3.380888,-0.002444
3.390892,-0.012219
3.400892,-0.017107
3.410892,-0.017107
3.420896,-0.017107
3.430896,-0.017107
3.4409,-0.017107
3.450904,-0.026882
3.460908,-0.021994
3.470908,-0.021994
3.480908,-0.021994
3.490908,-0.017107
3.500908,-0.021994
3.510908,-0.026882
3.520912,-0.017107
3.530916,-0.017107
3.540916,-0.017107
3.55092,-0.017107
3.560924,-0.026882
3.570924,-0.017107
3.580928,-0.017107
3.590928,-0.021994
3.600932,-0.017107
3.610936,-0.017107
3.62094,-0.021994
3.63094,-0.017107
3.64094,-0.017107
3.65094,-0.017107
3.66094,-0.017107
3.67094,-0.017107
3.68094,-0.017107
3.690948,-0.017107
3.700952,-0.017107
3.710956,-0.012219
3.720964,-0.007331
3.730964,-0.021994
3.740972,-0.012219
3.750972,-0.007331
3.760976,-0.012219
3.770976,-0.012219
3.78098,-0.017107
3.79098,-0.021994
3.800984,-0.012219
3.810988,-0.017107
3.820992,-0.017107
3.830996,-0.017107
3.841,-0.017107
3.851,-0.012219
3.861004,-0.007331
3.871004,-0.012219
3.881008,-0.002444
3.891008,-0.012219
3.901012,-0.021994
3.911016,-0.017107
3.92102,-0.017107
3.931024,-0.017107
3.941028,-0.012219
3.951028,-0.021994
3.961028,-0.012219
3.971028,-0.017107
3.981032,-0.017107
3.991032,-0.012219
4.001032,-0.012219
4.011036,-0.021994
4.02104,-0.017107
4.031044,-0.012219
4.041044,-0.026882
4.051048,-0.017107
4.061052,-0.017107
4.071052,-0.026882
4.081056,-0.012219
4.091056,-0.021994
4.10106,-0.026882
4.11106,-0.026882
4.121064,-0.021994
4.131068,-0.021994
4.141072,-0.026882
4.151076,-0.026882
4.161076,-0.026882
4.171076,-0.026882
4.18108,-0.026882
4.191084,-0.021994
4.201088,-0.026882
4.211088,-0.021994
4.221092,-0.012219
4.231092,-0.017107
4.2411,-0.017107
4.251104,-0.017107
4.261108,-0.021994
4.271112,-0.017107
4.281112,-0.007331
4.291116,-0.026882
4.30112,-0.017107
4.31112,-0.007331
4.32112,-0.021994
4.331124,-0.012219
4.341124,-0.017107
4.351132,-0.021994
4.361136,-0.012219
4.371136,-0.017107
4.381136,-0.012219
4.39114,-0.017107
4.401148,-0.021994
4.411152,-0.017107
4.421152,-0.012219
4.431156,-0.012219
4.44116,-0.012219
4.451164,-0.017107
4.461168,-0.021994
4.471168,-0.012219
4.481172,-0.012219
4.491176,-0.021994
4.50118,-0.012219
4.511184,-0.017107
4.521184,-0.012219
4.531184,-0.012219
4.541184,-0.021994
4.551188,-0.017107
4.561192,-0.012219
4.571192,-0.012219
4.581192,-0.007331
4.591196,-0.017107
4.6012,-0.017107
4.611204,-0.012219
4.621204,-0.017107
4.631212,-0.012219
4.64122,-0.007331
4.65122,-0.017107
4.66122,-0.012219
4.67122,-0.012219
4.68122,-0.012219
4.691224,-0.017107
4.701228,-0.017107
4.711228,-0.021994
4.721228,-0.012219
4.731228,-0.007331
4.741232,-0.021994
4.751232,-0.012219
4.761232,-0.012219
4.771236,-0.017107
4.781244,-0.012219
4.791248,-0.017107
4.801252,-0.017107
4.81126,-0.012219
4.821264,-0.012219
4.831264,0.002444
4.841264,-0.012219
4.851264,-0.017107
4.861264,-0.012219
4.871268,-0.012219
4.881272,-0.012219
4.89128,-0.012219
4.901284,-0.021994
4.911292,-0.021994
4.921296,-0.017107
4.9313,-0.017107
4.9413,-0.021994
4.951304,-0.017107
4.961304,-0.017107
4.971308,-0.012219
4.981308,-0.012219
4.991308,-0.021994
5.001316,-0.021994
5.01132,-0.017107
5.02132,-0.017107
5.03132,-0.012219
5.041324,-0.012219
5.051324,-0.021994
5.061328,-0.007331
5.071328,-0.017107
5.081332,-0.017107
5.09134,-0.007331
5.10134,-0.012219
5.111344,-0.017107
5.121348,-0.012219
5.131352,-0.012219
5.141352,-0.017107
5.151352,-0.017107
5.161352,-0.021994
5.171352,-0.017107
5.181352,-0.017107
5.19136,-0.026882
5.201364,-0.007331
5.211368,-0.021994
5.221368,-0.017107
5.231372,-0.012219
5.241376,-0.017107
5.251376,-0.017107
5.261376,-0.012219
5.271376,-0.017107
5.281384,-0.012219
5.291384,-0.017107
5.301384,-0.021994
5.311384,-0.017107
5.321384,-0.007331
5.331396,-0.017107
5.341404,-0.017107
5.351404,-0.021994
5.361408,-0.017107
5.371408,-0.017107
5.381412,-0.021994
5.391416,-0.021994
5.40142,-0.007331
5.411424,-0.017107
5.421424,-0.007331
5.431432,-0.017107
5.441432,-0.021994
5.451436,-0.012219
5.46144,-0.017107
5.471444,-0.012219
5.481448,-0.007331
5.491448,-0.012219
5.501452,-0.026882
5.511452,-0.012219
5.521452,-0.041544
5.531452,-0.046432
5.54146,-0.05132
5.551464,-0.056207
5.561464,-0.05132
5.571468,-0.041544
5.581468,-0.05132
5.591468,-0.046432
5.601468,-0.046432
5.611472,-0.041544
5.621476,-0.036657
5.631476,-0.031769
5.64148,-0.041544
5.65148,-0.021994
5.66148,-0.021994
5.67148,-0.017107
5.681484,-0.017107
5.691488,-0.026882
5.701492,-0.017107
5.711496,-0.012219
5.721496,-0.021994
5.731496,-0.012219
5.741496,-0.021994
5.7515,-0.017107
5.7615,-0.012219
5.7715,-0.012219
5.781504,-0.017107
5.791504,-0.017107
5.801504,-0.021994
5.811504,-0.021994
5.821504,-0.007331
5.831504,-0.017107
5.841504,-0.021994
5.851508,-0.017107
5.861508,-0.012219
5.871516,-0.017107
5.881516,-0.012219
5.89152,-0.017107
5.901524,-0.012219
5.911524,-0.012219
5.921528,-0.017107
5.931532,-0.012219
5.94154,-0.021994
5.951544,-0.021994
5.961548,-0.017107
5.971548,-0.017107
5.981552,-0.017107
5.991552,-0.012219
6.001552,-0.021994
6.011556,-0.017107
6.021556,-0.017107
6.031556,-0.021994
6.04156,-0.021994
6.051564,-0.017107
6.061568,-0.017107
6.071572,-0.017107
6.081576,-0.012219
6.09158,-0.021994
6.10158,-0.007331
6.11158,-0.012219
6.121584,-0.012219
6.131584,-0.012219
6.141584,-0.021994
6.151592,-0.007331
6.161592,-0.012219
6.171592,-0.012219
6.181592,-0.007331
6.191592,-0.017107
6.201592,-0.017107
6.211592,-0.012219
6.221592,-0.012219
6.231592,-0.017107
6.241592,-0.012219
6.251592,-0.012219
6.261592,-0.012219
6.271592,-0.007331
6.281596,-0.012219
6.2916,-0.007331
6.301604,-0.007331
6.311604,-0.012219
6.321604,-0.012219
6.331608,-0.012219
6.341612,-0.012219
6.351616,-0.007331
6.36162,-0.012219
6.371624,-0.007331
6.381628,-0.002444
6.391632,-0.017107
6.40164,-0.012219
6.411644,-0.012219
6.421644,-0.017107
6.431648,-0.012219
6.441648,-0.017107
6.451652,-0.021994
6.461656,-0.007331
6.47166,-0.012219
6.48166,-0.017107
6.491664,-0.007331
6.501668,-0.012219
6.511676,-0.007331
6.521676,-0.002444
6.53168,-0.012219
6.541684,-0.012219
6.551688,-0.002444
6.561688,-0.012219
6.571692,-0.002444
6.581696,-0.007331
6.5917,-0.017107
6.6017,-0.007331
6.6117,-0.007331
6.6217,-0.012219
6.6317,-0.007331
6.6417,-0.012219
6.651704,-0.012219
6.661708,-0.007331
6.671712,-0.012219
6.681716,-0.012219
6.69172,-0.012219
6.701724,-0.012219
6.711728,-0.012219
6.721732,-0.007331
6.731732,-0.017107
6.741736,-0.012219
6.751736,-0.002444
6.76174,-0.012219
6.77174,-0.002444
6.78174,-0.012219
6.791744,-0.021994
6.801744,-0.007331
6.811744,-0.012219
6.821744,-0.002444
6.831744,-0.007331
6.841748,-0.012219
6.851752,-0.012219
6.861752,-0.007331
6.871756,-0.017107
6.881756,-0.012219
6.89176,-0.012219
6.901764,-0.012219
6.911764,-0.007331
6.921764,-0.012219
6.931764,-0.017107
6.941764,-0.007331
6.951772,-0.017107
6.961772,-0.012219
6.971776,-0.002444
6.98178,-0.017107
6.991784,-0.017107
7.001788,-0.007331
7.011792,-0.012219
7.0218,-0.012219
7.031804,-0.012219
7.041804,-0.021994
7.051804,-0.017107
7.061808,-0.012219
7.071808,-0.007331
7.081808,-0.012219
7.091812,-0.017107
7.101812,-0.012219
7.111816,-0.007331
7.121816,-0.012219
7.131816,-0.012219
7.141828,-0.012219
7.151828,-0.017107
7.161832,-0.007331
7.171836,-0.017107
7.18184,-0.012219
7.191844,-0.012219
7.201848,-0.012219
7.211852,-0.012219
7.221856,-0.002444
7.23186,-0.017107
7.24186,-0.017107
7.25186,-0.007331
7.261864,-0.012219
7.271872,-0.012219
7.281876,-0.012219
7.29188,-0.017107
7.30188,-0.012219
7.311888,-0.007331
7.321892,-0.012219
7.331896,-0.007331
7.3419,-0.012219
7.351904,-0.017107
7.361908,-0.007331
7.371912,-0.012219
7.381912,-0.012219
7.391912,-0.017107
7.401916,-0.017107
7.411916,-0.012219
7.42192,-0.017107
7.43192,-0.021994
7.44192,-0.012219
7.451924,-0.007331
7.461924,-0.012219
7.471928,-0.012219
7.481936,-0.012219
7.491936,-0.012219
7.50194,-0.002444
7.511944,-0.012219
7.521944,-0.012219
7.531944,-0.012219
7.541948,-0.012219
7.551952,-0.007331
7.561956,-0.007331
7.571956,-0.017107
7.58196,-0.012219
7.591964,-0.012219
7.601968,-0.012219
7.611972,-0.007331
7.621976,-0.007331
7.63198,-0.017107
7.641984,-0.012219
7.651988,-0.012219
7.661992,-0.012219
7.671992,0.002444
7.681992,-0.012219
7.691996,-0.012219
7.701996,0.002444
7.711996,-0.012219
7.722,-0.012219
7.732004,-0.007331
7.742012,-0.017107
7.752016,-0.007331
7.76202,-0.012219
7.772024,-0.021994
7.782024,-0.017107
7.792028,-0.017107
7.802028,-0.021994
7.812028,-0.017107
7.822036,-0.026882
7.83204,-0.017107
7.84204,-0.017107
7.852044,-0.017107
7.862048,-0.021994
7.872056,-0.012219
7.88206,-0.021994
7.89206,-0.017107
7.90206,-0.012219
7.91206,-0.017107
7.922064,-0.017107
7.932068,-0.017107
7.942072,-0.017107
7.952072,-0.007331
7.96208,-0.012219
7.97208,-0.012219
7.98208,-0.007331
7.99208,-0.012219
8.002084,-0.017107
8.012088,-0.007331
8.022089,-0.021994
8.032093,-0.007331
8.042097,-0.012219
8.052097,-0.017107
8.062101,-0.007331
8.0721,-0.017107
8.082104,-0.017107
8.092108,-0.012219
8.102112,-0.012219
8.112116,-0.007331
8.122117,-0.007331
8.132117,-0.017107
8.142121,-0.012219
8.15212,-0.007331
8.162129,-0.012219
8.172128,-0.012219
8.182128,-0.017107
8.192129,-0.017107
8.202133,-0.007331
8.212137,-0.012219
8.222145,-0.017107
8.232145,-0.007331
8.242149,-0.012219
8.252153,-0.012219
8.262152,-0.007331
8.272156,-0.017107
8.282156,-0.017107
8.292157,-0.007331
8.302161,-0.017107
8.312165,-0.012219
8.322173,-0.017107
8.332177,-0.017107
8.342181,-0.012219
8.352192,-0.012219
8.362193,-0.012219
8.372193,-0.012219
8.382192,-0.012219
8.392196,-0.017107
8.402196,-0.012219
8.4122,-0.007331
8.422201,-0.007331
8.432205,-0.002444
8.442205,-0.007331
8.452208,-0.012219
8.462208,-0.012219
8.472208,-0.021994
8.482216,-0.012219
8.492217,-0.017107
8.502221,-0.012219
8.512225,-0.012219
8.522229,-0.012219
8.532233,-0.017107
8.542237,-0.007331
8.552241,-0.012219
8.562249,-0.012219
8.572249,-0.007331
8.582248,-0.017107
8.592248,-0.012219
8.602249,-0.007331
8.612253,-0.007331
8.622253,-0.012219
8.632256,-0.012219
8.64226,-0.017107
8.65226,-0.007331
8.662264,-0.017107
8.672268,-0.017107
8.682276,-0.012219
8.692276,-0.012219
8.70228,-0.017107
8.712281,-0.007331
8.722285,-0.017107
8.732284,-0.017107
8.742284,-0.007331
8.752288,-0.012219
8.762292,-0.002444
8.772293,-0.017107
8.782293,-0.017107
8.792292,-0.017107
8.802296,-0.012219
8.812296,-0.012219
8.8223,-0.012219
8.832304,-0.017107
8.842305,-0.017107
8.852305,-0.012219
8.862304,-0.002444
8.872308,-0.017107
8.882312,-0.012219
8.89232,-0.017107
8.902324,-0.017107
8.912328,-0.007331
8.922332,-0.021994
8.932332,-0.012219
8.942333,-0.012219
8.952332,-0.012219
8.962336,-0.007331
8.972336,-0.012219
8.98234,-0.012219
8.992344,-0.012219
9.002348,-0.012219
9.012349,-0.007331
9.022349,-0.012219
9.032353,-0.021994
9.042352,-0.017107
9.052356,-0.002444
9.062356,-0.017107
9.07236,-0.017107
9.082361,-0.012219
9.092365,-0.017107
9.102369,-0.007331
9.112373,-0.017107
9.122372,-0.021994
9.132372,-0.012219
9.142376,-0.012219
9.15238,-0.012219
9.162384,-0.007331
9.172385,-0.021994
9.182389,-0.017107
9.192388,-0.012219
9.202397,-0.012219
9.212401,-0.012219
9.222409,-0.017107
9.232408,-0.017107
9.242408,-0.012219
9.252408,-0.012219
9.262409,-0.012219
9.272408,-0.002444
9.282408,-0.012219
9.292416,-0.017107
9.30242,-0.012219
9.312424,-0.012219
9.322424,-0.017107
9.332425,-0.017107
9.342429,-0.017107
9.352433,-0.012219
9.362432,-0.012219
9.372436,-0.021994
9.38244,-0.002444
9.392444,-0.012219
9.402444,-0.012219
9.412448,-0.012219
9.422452,-0.017107
9.432453,-0.012219
9.442457,-0.012219
9.452461,-0.007331
9.462465,-0.012219
9.472469,-0.012219
9.482473,-0.017107
9.492477,-0.012219
9.502476,-0.017107
9.512476,-0.017107
9.522477,-0.017107
9.532477,-0.012219
9.542476,-0.017107
9.552484,-0.007331
9.562488,-0.017107
9.572492,-0.017107
9.582496,-0.017107
9.592496,-0.021994
9.602497,-0.007331
9.612497,-0.017107
9.622501,-0.026882
9.632505,-0.017107
9.642504,-0.021994
9.652504,-0.026882
9.662512,-0.021994
9.672516,-0.026882
9.68252,-0.026882
9.692521,-0.021994
9.702521,-0.021994
9.71252,-0.021994
9.72252,-0.021994
9.732521,-0.026882
9.742521,-0.021994
9.752525,-0.021994
9.762529,-0.026882
9.772528,-0.026882
9.782532,-0.017107
9.792532,-0.026882
9.802536,-0.012219
9.812537,-0.017107
9.822537,-0.021994
9.832536,-0.017107
9.84254,-0.017107
9.85254,-0.021994
9.862541,-0.007331
9.872541,-0.026882
9.88254,-0.017107
9.89254,-0.017107
9.902541,-0.012219
9.912541,-0.017107
9.92254,-0.012219
9.932544,-0.017107
9.942548,-0.012219
9.952548,-0.012219
9.962549,-0.021994
9.972553,-0.017107
9.982557,-0.012219
9.992561,-0.012219
10.00256,-0.012219
10.012564,-0.021994
10.022564,-0.021994
10.032565,-0.007331
10.042565,-0.017107
10.052564,-0.012219
10.062564,-0.012219
10.072565,-0.021994
10.082565,-0.017107
10.092573,-0.017107
10.102573,-0.017107
10.112572,-0.017107
10.122572,-0.017107
10.132573,-0.017107
10.142573,-0.017107
10.152572,-0.017107
10.162572,-0.017107
10.172573,-0.007331
10.182577,-0.012219
10.192581,-0.012219
10.202581,-0.017107
10.212584,-0.021994
10.222584,-0.021994
10.232592,-0.017107
10.242592,-0.012219
10.252596,-0.017107
10.2626,-0.031769
10.272604,-0.041544
10.282608,-0.041544
10.292609,-0.041544
10.302613,-0.056207
10.312617,-0.041544
10.322616,-0.046432
10.332616,-0.036657
10.34262,-0.031769
10.352621,-0.026882
10.362621,-0.026882
10.372629,-0.026882
10.382629,-0.021994
10.392632,-0.021994
10.402632,-0.021994
10.412636,-0.021994
10.422636,-0.017107
10.432637,-0.017107
10.442645,-0.017107
10.452649,-0.012219
10.46266,-0.021994
10.472661,-0.021994
10.482665,-0.017107
10.492665,-0.017107
10.502664,-0.012219
10.512664,-0.021994
10.522665,-0.021994
10.532665,-0.017107
10.542664,-0.017107
10.552668,-0.012219
10.562668,-0.012219
10.572672,-0.017107
10.582673,-0.012219
10.592673,-0.012219
10.602681,-0.012219
10.612689,-0.012219
10.622693,-0.017107
10.632693,-0.017107
10.642692,-0.017107
10.652696,-0.012219
10.662696,-0.021994
10.6727,-0.012219
10.682708,-0.012219
10.692712,-0.021994
10.702713,-0.012219
10.712717,-0.017107
10.722721,-0.021994
10.732725,-0.007331
10.742729,-0.017107
10.752729,-0.012219
10.762732,-0.017107
10.772732,-0.021994
10.782736,-0.012219
10.792737,-0.012219
10.802744,-0.012219
10.812752,-0.017107
10.822752,-0.017107
10.832753,-0.017107
10.842757,-0.012219
10.852761,-0.017107
10.862765,-0.017107
10.872769,-0.012219
10.882773,-0.017107
10.892776,-0.017107
10.902776,-0.012219
10.91278,-0.012219
10.92278,-0.012219
10.932781,-0.007331
10.942785,-0.012219
10.952784,-0.012219
10.962784,-0.007331
10.972788,-0.017107
10.982792,-0.012219
10.992796,-0.012219
11.0028,-0.007331
11.012801,-0.007331
11.022809,-0.021994
11.032809,-0.017107
11.042813,-0.007331
11.052817,-0.007331
11.062816,-0.007331
11.072816,-0.012219
11.08282,-0.012219
11.092824,-0.002444
11.102828,-0.017107
11.112829,-0.017107
11.122828,-0.012219
11.132828,-0.012219
11.142828,-0.007331
11.152829,-0.007331
11.162833,-0.012219
11.172841,-0.017107
11.182845,-0.007331
11.192849,-0.012219
11.202853,-0.012219
11.212857,-0.012219
11.222861,-0.017107
11.232869,-0.012219
11.242873,-0.012219
11.252881,-0.021994
11.262881,-0.017107
11.27288,-0.017107
11.28288,-0.012219
11.292884,-0.007331
11.302892,-0.017107
11.3129,-0.017107
11.322904,-0.012219
11.332904,-0.017107
11.342908,-0.007331
11.352912,-0.007331
11.362913,-0.021994
11.372917,-0.007331
11.382921,-0.012219
11.392925,-0.012219
11.402924,-0.012219
11.412924,-0.012219
11.422924,-0.012219
11.432929,-0.012219
11.442933,-0.007331
11.452937,-0.007331
11.462937,-0.012219
11.472941,-0.012219
11.48294,-0.007331
11.492944,-0.007331
11.502948,-0.017107
11.512956,-0.012219
11.522956,-0.007331
11.532957,-0.017107
11.542957,-0.012219
11.552956,-0.017107
11.56296,-0.021994
11.57296,-0.012219
11.582964,-0.021994
11.592965,-0.021994
11.602965,-0.017107
11.612964,-0.021994
11.622968,-0.021994
11.632968,-0.012219
11.642976,-0.017107
11.652984,-0.017107
11.662984,-0.021994
11.672985,-0.026882
11.682985,-0.017107
11.692989,-0.017107
11.702988,-0.021994
11.712992,-0.007331
11.722992,-0.021994
11.732996,-0.012219
11.743,-0.007331
11.753001,-0.017107
11.763005,-0.012219
11.773009,-0.012219
11.783008,-0.017107
11.793012,-0.012219
11.803016,-0.012219
11.81302,-0.017107
11.823024,-0.012219
11.833032,-0.007331
11.843032,-0.012219
11.853033,-0.012219
11.863033,-0.017107
11.873037,-0.012219
11.883041,-0.007331
11.893045,-0.012219
11.903044,-0.007331
11.913052,-0.007331
11.923061,-0.012219
11.93306,-0.007331
11.94306,-0.007331
11.953068,-0.017107
11.963076,0.002444
11.973085,-0.012219
11.983088,-0.012219
11.993092,-0.007331
12.003096,-0.012219
12.0131,-0.012219
12.023104,-0.002444
12.033104,-0.007331
12.043108,-0.007331
12.053109,-0.012219
12.063109,-0.012219
12.073108,-0.007331
12.083108,-0.007331
12.093109,-0.012219
12.103116,-0.007331
12.113117,-0.002444
12.123121,-0.012219
12.13312,0.002444
12.143124,-0.007331
12.153128,-0.012219
12.163132,-0.012219
12.173132,-0.007331
12.183136,-0.012219
12.193137,-0.002444
12.203137,-0.012219
12.213136,-0.012219
12.223136,-0.002444
12.233137,-0.007331
12.243141,0.007331
12.253145,-0.012219
12.263149,-0.017107
12.273153,-0.007331
12.283157,-0.007331
12.293161,-0.007331
12.30316,-0.002444
12.313164,-0.007331
12.323172,-0.007331
12.333181,-0.007331
12.343185,-0.012219
12.353188,-0.007331
12.363197,-0.007331
12.373201,-0.012219
12.3832,-0.007331
12.393204,-0.002444
12.403204,-0.012219
12.413212,-0.007331
12.423216,-0.007331
12.433217,-0.007331
12.443221,-0.007331
12.453221,-0.012219
12.463225,-0.012219
12.473229,-0.002444
12.483228,-0.007331
12.493232,-0.002444
12.503236,-0.007331
12.51324,-0.012219
12.523241,-0.007331
12.533241,-0.007331
12.54324,-0.012219
12.553244,-0.007331
12.563244,-0.007331
12.573245,-0.012219
12.583249,-0.007331
12.593249,-0.002444
12.603253,-0.012219
12.613257,-0.012219
12.623256,-0.012219
12.633264,-0.002444
12.643268,0.002444
12.653272,-0.012219
12.663276,-0.002444
12.673276,-0.002444
12.683277,-0.007331
12.693281,0.002444
12.703281,-0.012219
12.71328,-0.012219
12.723288,0.002444
12.733288,-0.002444
12.743288,0.002444
12.753289,-0.007331
12.763288,-0.007331
12.773292,-0.007331
12.783292,-0.007331
12.793292,-0.007331
12.803297,-0.007331
12.813297,-0.007331
12.823301,-0.012219
12.833305,-0.002444
12.843304,-0.007331
12.853304,-0.012219
12.863308,-0.007331
12.873312,-0.007331
12.883313,-0.002444
12.893321,-0.002444
12.903325,-0.012219
12.913329,-0.007331
12.923329,-0.007331
12.933328,-0.002444
12.943332,-0.007331
12.953336,-0.007331
12.96334,-0.012219
12.973344,-0.002444
12.983345,-0.007331
12.993352,-0.007331
13.003356,-0.007331
13.013357,-0.007331
13.023357,-0.012219
13.03336,0.002444
13.04336,-0.002444
13.053364,-0.007331
13.063368,-0.002444
13.073372,-0.007331
13.083376,-0.002444
13.09338,0.002444
13.103384,-0.007331
13.113385,-0.002444
13.123393,-0.002444
13.133393,-0.002444
13.143392,0.002444
13.153396,-0.002444
13.163396,-0.002444
13.173397,0.002444
13.183397,0.002444
13.193396,0.002444
13.2034,0.002444
13.2134,0.002444
13.223401,0.002444
13.233401,0.002444
13.2434,-0.002444
13.2534,-0.002444
13.263401,-0.002444
13.273405,-0.002444
13.283409,0.007331
13.293409,-0.002444
13.303413,-0.007331
13.313412,0.002444
13.323416,-0.002444
13.33342,-0.007331
13.343424,-0.002444
13.353428,-0.007331
13.363432,-0.002444
13.373436,-0.002444
13.383437,-0.002444
13.393437,-0.002444
13.403436,-0.002444
13.413436,-0.007331
13.42344,-0.002444
13.433444,0.002444
13.443452,-0.012219
13.453453,-0.007331
13.463457,-0.007331
13.473464,-0.007331
13.483469,-0.002444
13.493469,-0.017107
13.503473,-0.012219
13.513472,-0.012219
13.523476,-0.002444
13.533476,-0.007331
13.543477,-0.007331
13.553477,-0.012219
13.563476,-0.007331
13.57348,-0.007331
13.58348,-0.007331
13.593488,0.002444
13.603492,-0.007331
13.613505,-0.002444
13.623504,-0.002444
13.633504,0.002444
13.643508,-0.002444
13.653509,-0.002444
13.663513,-0.007331
13.673513,-0.002444
13.683516,0.002444
13.69352,-0.007331
13.70352,-0.002444
13.713524,-0.002444
13.723525,-0.002444
13.733529,0.002444
13.743533,-0.002444
13.753537,-0.012219
13.763541,0.002444
13.773545,-0.002444
13.783549,-0.002444
13.793548,0.007331
13.803548,-0.012219
13.813549,-0.002444
13.823549,0.007331
13.833553,-0.007331
13.843552,-0.002444
13.853556,-0.007331
13.863556,-0.002444
13.873557,-0.002444
13.883561,0.002444
13.893561,-0.007331
13.903565,-0.007331
13.913568,-0.007331
13.923568,-0.007331
13.933572,0.012219
13.943576,-0.007331
13.95358,-0.002444
13.963584,0.002444
13.973585,-0.002444
13.983585,-0.002444
13.993584,-0.007331
14.003588,-0.012219
14.013592,0.002444
14.023596,-0.002444
14.033596,-0.002444
14.043597,-0.002444
14.053601,-0.007331
14.063605,0.002444
14.073609,0.007331
14.083608,-0.002444
14.093608,-0.002444
14.103609,-0.007331
14.113613,-0.007331
14.123613,-0.007331
14.133612,-0.002444
14.143616,-0.002444
14.15362,-0.002444
14.163624,-0.007331
14.173632,-0.007331
14.183632,-0.002444
14.193636,-0.002444
14.203637,-0.007331
14.213637,0.002444
14.223641,-0.002444
14.233644,-0.002444
14.243644,-0.002444
14.253644,-0.007331
14.263648,-0.002444
14.273653,0.007331
14.283657,0.002444
14.293657,0.002444
14.303656,-0.007331
14.31366,-0.007331
14.323664,-0.007331
14.333672,-0.007331
14.343672,-0.007331
14.353672,-0.007331
14.36368,-0.002444
14.373684,-0.007331
14.383685,-0.007331
14.393689,-0.012219
14.403693,-0.012219
14.413697,-0.002444
14.423701,-0.007331
14.4337,0.002444
14.443709,-0.007331
14.453713,-0.012219
14.463716,-0.002444
14.473716,-0.012219
14.48372,-0.002444
14.493724,-0.007331
14.503725,-0.012219
14.513729,-0.002444
14.523729,0.002444
14.533733,-0.007331
14.543737,-0.007331
14.55374,-0.002444
14.563744,-0.007331
14.573753,0.002444
14.583752,-0.002444
14.593752,-0.012219
14.603753,-0.002444
14.613757,-0.002444
14.623757,-0.002444
14.633756,-0.002444
14.643756,-0.012219
14.653757,-0.012219
14.663757,-0.002444
14.673756,-0.012219
14.683765,-0.007331
14.693768,-0.007331
14.703772,-0.017107
14.713772,-0.007331
14.723776,-0.007331
14.73378,-0.012219
14.743784,-0.007331
14.753788,-0.007331
14.763796,-0.007331
14.773797,-0.002444
14.783801,-0.007331
14.793801,-0.007331
14.8038,-0.012219
14.813804,-0.012219
14.823808,-0.007331
14.833808,-0.007331
14.843816,-0.012219
14.853816,-0.012219
14.863821,-0.007331
14.873828,-0.002444
14.883832,-0.007331
14.893836,-0.017107
14.903841,-0.012219
14.913845,-0.012219
14.923845,-0.002444
14.933849,-0.012219
14.943848,0.002444
14.953857,-0.017107
14.963856,-0.012219
14.973856,-0.007331
14.98386,-0.012219
14.993861,-0.012219
15.003861,-0.007331
15.01386,-0.012219
15.023864,-0.007331
15.033864,-0.012219
15.043865,-0.012219
15.053869,-0.012219
15.063868,-0.007331
15.073868,-0.007331
15.083872,-0.007331
15.093873,-0.017107
15.103877,-0.017107
15.113877,-0.012219
15.123881,-0.012219
15.13388,-0.012219
15.143884,-0.012219
15.153888,-0.017107
15.163888,-0.007331
15.173892,-0.007331
15.183893,-0.017107
15.193897,-0.007331
15.203901,-0.012219
15.2139,-0.007331
15.2239,-0.007331
15.233901,-0.017107
15.243905,-0.012219
15.253909,-0.007331
15.263916,-0.012219
15.273917,-0.007331
15.283921,-0.012219
15.293925,-0.021994
15.303929,-0.017107
15.313933,-0.017107
15.323932,-0.017107
15.333932,-0.012219
15.343936,-0.021994
15.353944,-0.021994
15.363948,-0.017107
15.373952,-0.012219
15.383953,-0.021994
15.393957,-0.021994
15.403961,-0.026882
15.413965,-0.017107
15.423964,-0.031769
15.433968,-0.041544
15.443972,-0.031769
15.453972,-0.041544
15.463973,-0.041544
15.47398,-0.036657
15.483984,-0.046432
15.493988,-0.046432
15.503989,-0.036657
15.513993,-0.036657
15.523992,-0.026882
15.533996,-0.026882
15.544,-0.031769
15.554,-0.021994
15.564004,-0.017107
15.574005,-0.017107
15.584009,-0.021994
15.594013,-0.017107
15.604012,-0.017107
15.614016,-0.012219
15.624016,-0.012219
15.634016,-0.017107
15.644017,-0.012219
15.654016,-0.012219
15.664016,-0.017107
15.67402,-0.012219
15.684033,-0.021994
15.694036,-0.007331
15.70404,-0.017107
15.71404,-0.012219
15.72404,-0.012219
15.734045,-0.017107
15.744045,-0.021994
15.754049,-0.012219
15.764053,-0.017107
15.774052,-0.012219
15.784056,-0.012219
15.79406,-0.017107
15.80406,-0.017107
15.814068,-0.017107
15.824069,-0.017107
15.834069,-0.021994
15.844073,-0.012219
15.854077,-0.017107
15.864076,-0.017107
15.87408,-0.012219
15.88408,-0.026882
15.894084,-0.017107
15.904092,-0.017107
15.914096,-0.017107
15.924097,-0.012219
15.934104,-0.021994
15.944108,-0.021994
15.954116,-0.017107
15.96412,-0.012219
15.974128,-0.017107
15.984128,-0.017107
15.994129,-0.026882
16.004127,-0.017107
16.014127,-0.017107
16.024135,-0.021994
16.034139,-0.021994
16.044139,-0.017107
16.054147,-0.017107
16.064147,-0.021994
16.074148,-0.007331
16.084148,-0.026882
16.094152,-0.017107
16.104156,-0.021994
16.114156,-0.017107
16.124156,-0.012219
16.134155,-0.026882
16.144159,-0.017107
16.154159,-0.012219
16.164167,-0.021994
16.174175,-0.017107
16.184175,-0.012219
16.194179,-0.021994
16.204183,-0.017107
16.214191,-0.017107
16.224195,-0.017107
16.234203,-0.017107
16.244203,-0.017107
16.254203,-0.017107
16.264204,-0.007331
16.274204,-0.017107
16.284204,-0.021994
16.294204,-0.017107
16.304204,-0.017107
16.314207,-0.017107
16.324207,-0.007331
16.334211,-0.026882
16.344211,-0.017107
16.354219,-0.017107
16.364227,-0.017107
16.374235,-0.012219
16.384239,-0.021994
16.394239,-0.012219
16.404239,-0.021994
16.414239,-0.017107
16.424243,-0.012219
16.434244,-0.021994
16.444248,-0.026882
16.454248,-0.017107
16.464248,-0.017107
16.474248,-0.017107
16.484247,-0.021994
16.494247,-0.017107
16.504255,-0.021994
16.514259,-0.017107
16.524263,-0.017107
16.534263,-0.026882
16.544263,-0.017107
16.554267,-0.021994
16.564271,-0.012219
16.574275,-0.012219
16.584283,-0.026882
16.594287,-0.021994
16.604295,-0.017107
16.614295,-0.021994
16.624296,-0.017107
16.634304,-0.021994
16.644304,-0.017107
16.654308,-0.012219
16.664308,-0.017107
16.674312,-0.012219
16.684312,-0.012219
16.694316,-0.017107
16.70432,-0.021994
16.714324,-0.012219
16.724327,-0.017107
16.734331,-0.021994
16.74434,-0.017107
16.754339,-0.026882
16.764352,-0.012219
16.774356,-0.017107
16.78436,-0.021994
16.794359,-0.021994
16.804367,-0.017107
16.814371,-0.017107
16.824371,-0.012219
16.834371,-0.026882
16.844375,-0.021994
16.854375,-0.017107
16.864376,-0.021994
16.874376,-0.017107
16.884376,-0.017107
16.894376,-0.026882
16.904375,-0.017107
16.914379,-0.017107
16.924383,-0.021994
16.934383,-0.017107
16.944387,-0.021994
16.954387,-0.021994
16.964387,-0.017107
16.974388,-0.012219
16.984388,-0.021994
16.994392,-0.012219
17.004392,-0.021994
17.014396,-0.017107
17.024396,-0.021994
17.034395,-0.026882
17.044395,-0.017107
17.054403,-0.017107
17.064407,-0.021994
17.074407,-0.017107
17.084411,-0.021994
17.094419,-0.026882
17.104423,-0.021994
17.114427,-0.021994
17.124431,-0.026882
17.134431,-0.026882
17.144435,-0.031769
17.154436,-0.021994
17.164436,-0.021994
17.17444,-0.026882
17.184444,-0.026882
17.194448,-0.026882
17.204448,-0.026882
17.214448,-0.026882
17.224447,-0.017107
17.234447,-0.031769
17.244447,-0.021994
17.254451,-0.021994
17.264455,-0.021994
17.274456,-0.017107
17.28446,-0.026882
17.29446,-0.017107
17.304468,-0.021994
17.314476,-0.026882
17.324483,-0.017107
17.334487,-0.021994
17.344491,-0.021994
17.354496,-0.017107
17.3645,-0.007331
17.374504,-0.017107
17.384508,-0.017107
17.394515,-0.017107
17.40452,-0.017107
17.414524,-0.017107
17.424524,-0.017107
17.434528,-0.021994
17.444528,-0.017107
17.454528,-0.017107
17.464527,-0.012219
17.474531,-0.017107
17.484531,-0.021994
17.494535,-0.017107
17.504539,-0.017107
17.514539,-0.021994
17.524543,-0.021994
17.534543,-0.017107
17.544548,-0.012219
17.554548,-0.012219
17.564552,-0.012219
17.574556,-0.021994
17.58456,-0.017107
17.594564,-0.021994
17.604564,-0.021994
17.614568,-0.017107
17.624568,-0.026882
17.634567,-0.017107
17.644567,-0.021994
17.654571,-0.021994
17.664575,-0.017107
17.674575,-0.021994
17.684576,-0.021994
17.694576,-0.007331
17.70458,-0.012219
17.714588,-0.012219
17.724588,-0.021994
17.734588,-0.021994
17.744588,-0.021994
17.754587,-0.021994
17.764591,-0.017107
17.774591,-0.017107
17.784591,-0.017107
17.794591,-0.021994
17.804592,-0.017107
17.814596,-0.017107
17.8246,-0.026882
17.834604,-0.017107
17.844604,-0.017107
17.854604,-0.017107
17.864608,-0.007331
17.874616,-0.026882
17.884616,-0.017107
17.894615,-0.017107
17.904615,-0.021994
17.914619,-0.017107
17.924623,-0.017107
17.934627,-0.026882
17.944631,-0.012219
17.954635,-0.017107
17.964639,-0.017107
17.974639,-0.017107
17.98464,-0.026882
17.99464,-0.021994
18.00464,-0.017107
18.01464,-0.021994
18.024639,-0.026882
18.034643,-0.021994
18.044643,-0.017107
18.054643,-0.017107
18.064643,-0.017107
18.074647,-0.026882
18.084648,-0.021994
18.094648,-0.017107
18.104652,-0.012219
18.114656,-0.017107
18.124656,-0.021994
18.134656,-0.021994
18.14466,-0.017107
18.154659,-0.017107
18.164663,-0.017107
18.174663,-0.021994
18.184663,-0.031769
18.194664,-0.012219
18.204664,-0.017107
18.214668,-0.021994
18.224672,-0.017107
18.234676,-0.017107
18.24468,-0.021994
18.25468,-0.021994
18.26468,-0.017107
18.274684,-0.026882
18.284688,-0.021994
18.294691,-0.017107
18.304695,-0.017107
18.314695,-0.012219
18.324703,-0.026882
18.334707,-0.021994
18.344707,-0.007331
18.354711,-0.021994
18.364715,-0.017107
18.374719,-0.021994
18.384719,-0.026882
18.39472,-0.017107
18.40472,-0.021994
18.41472,-0.017107
18.424724,-0.017107
18.434728,-0.021994
18.444736,-0.021994
18.454736,-0.007331
18.46474,-0.021994
18.474744,-0.021994
18.484748,-0.021994
18.494747,-0.026882
18.504747,-0.017107
18.514751,-0.021994
18.524751,-0.026882
18.534755,-0.021994
18.544759,-0.021994
18.554763,-0.021994
18.564767,-0.017107
18.574768,-0.021994
18.584768,-0.017107
18.594776,-0.021994
18.604784,-0.021994
18.614788,-0.017107
18.624788,-0.017107
18.634792,-0.026882
18.644792,-0.017107
18.654792,-0.017107
18.664796,-0.021994
18.6748,-0.012219
18.684799,-0.021994
18.694803,-0.017107
18.704803,-0.012219
18.714811,-0.021994
18.724819,-0.021994
18.734823,-0.017107
18.744827,-0.017107
18.754835,-0.017107
18.764839,-0.017107
18.774848,-0.026882
18.784851,-0.021994
18.794855,-0.021994
18.804855,-0.021994
18.814855,-0.012219
18.824855,-0.021994
18.834856,-0.021994
18.844856,-0.007331
18.85486,-0.021994
18.864864,-0.021994
18.874868,-0.021994
18.884872,-0.026882
18.894876,-0.021994
18.904876,-0.021994
18.91488,-0.026882
18.924884,-0.017107
18.934888,-0.017107
18.944892,-0.026882
18.954891,-0.021994
18.964895,-0.021994
18.974895,-0.031769
18.984899,-0.012219
18.994899,-0.017107
19.004899,-0.021994
19.0149,-0.021994
19.024904,-0.026882
19.034908,-0.026882
19.044908,-0.026882
19.054908,-0.031769
19.064916,-0.026882
19.074924,-0.026882
19.084932,-0.036657
19.094932,-0.026882
19.104932,-0.026882
19.114931,-0.036657
19.124931,-0.026882
19.134931,-0.031769
19.144931,-0.026882
19.154935,-0.026882
19.164936,-0.026882
19.17494,-0.021994
19.18494,-0.021994
19.194944,-0.026882
19.204952,-0.021994
19.214956,-0.012219
19.22496,-0.021994
19.234964,-0.021994
19.244964,-0.021994
19.254964,-0.021994
19.264963,-0.017107
19.274972,-0.021994
19.284975,-0.017107
19.294975,-0.017107
19.304975,-0.017107
19.314979,-0.026882
19.324979,-0.017107
19.33498,-0.021994
19.34498,-0.017107
19.35498,-0.017107
19.36498,-0.026882
19.374984,-0.021994
19.384992,-0.021994
19.394992,-0.021994
19.404991,-0.017107
19.414995,-0.017107
19.424999,-0.026882
19.435003,-0.017107
19.445007,-0.021994
19.455011,-0.017107
19.465011,-0.012219
19.475015,-0.026882
19.485019,-0.021994
19.495019,-0.012219
19.50502,-0.017107
19.51502,-0.017107
19.52502,-0.021994
19.535024,-0.026882
19.545028,-0.012219
19.555028,-0.017107
19.565031,-0.026882
19.575031,-0.017107
19.585035,-0.026882
19.595039,-0.021994
19.605039,-0.017107
19.615039,-0.026882
19.625043,-0.017107
19.635044,-0.021994
19.645044,-0.021994
19.655044,-0.017107
19.665044,-0.021994
19.675048,-0.031769
19.685047,-0.021994
19.695047,-0.017107
19.705051,-0.017107
19.715055,-0.017107
19.725059,-0.021994
19.735063,-0.021994
19.745067,-0.017107
19.755075,-0.017107
19.765075,-0.021994
19.775083,-0.021994
19.785083,-0.021994
19.795083,-0.021994
19.805088,-0.012219
19.815088,-0.026882
19.825088,-0.021994
19.835092,-0.021994
19.845096,-0.012219
19.8551,-0.012219
19.865108,-0.026882
19.875108,-0.021994
19.885112,-0.017107
19.895111,-0.017107
19.905115,-0.012219
19.915115,-0.017107
19.925115,-0.021994
19.935119,-0.021994
19.945119,-0.017107
19.955123,-0.012219
19.965124,-0.021994
19.975128,-0.012219
19.985132,-0.021994
19.995136,-0.012219
20.005144,-0.007331
20.015148,-0.026882
20.025148,-0.012219
20.035148,-0.021994
20.045148,-0.021994
20.055147,-0.012219
20.065151,-0.021994
20.075155,-0.021994
20.085155,-0.021994
20.095155,-0.017107
20.105163,-0.007331
20.115163,-0.021994
20.125164,-0.021994
20.135164,-0.021994
20.145168,-0.021994
20.155168,-0.017107
20.165168,-0.017107
20.175172,-0.017107
20.185176,-0.017107
20.195175,-0.012219
20.205179,-0.017107
20.215179,-0.017107
20.225179,-0.021994
20.235183,-0.017107
20.245183,-0.002444
20.255187,-0.012219
20.265188,-0.021994
20.275192,-0.007331
20.285192,-0.017107
20.295192,-0.012219
20.3052,-0.002444
20.315204,-0.021994
20.325204,-0.017107
20.335203,-0.017107
20.345207,-0.017107
20.355207,-0.017107
20.365211,-0.017107
20.375211,-0.021994
20.385215,-0.012219
20.395219,-0.007331
20.40522,-0.017107
20.415224,-0.017107
20.425228,-0.017107
20.435228,-0.031769
20.445232,-0.026882
20.455232,-0.036657
20.465232,-0.046432
20.475231,-0.041544
20.485231,-0.05132
20.495235,-0.036657
20.505239,-0.041544
20.515243,-0.046432
20.525247,-0.041544
20.535255,-0.036657
20.545255,-0.036657
20.555263,-0.036657
20.565263,-0.031769
20.575263,-0.031769
20.585264,-0.021994
20.595264,-0.026882
20.605264,-0.026882
20.615268,-0.021994
20.625272,-0.021994
20.635271,-0.017107
20.645275,-0.012219
20.655275,-0.017107
20.665279,-0.017107
20.675279,-0.017107
20.685279,-0.017107
20.69528,-0.002444
20.705287,-0.012219
20.715291,-0.021994
20.725296,-0.012219
20.735296,-0.012219
20.7453,-0.012219
20.755308,-0.007331
20.765312,-0.021994
20.775316,-0.012219
20.78532,-0.012219
20.795324,-0.012219
20.805324,-0.012219
20.815324,-0.012219
20.825323,-0.017107
20.835332,-0.012219
20.845331,-0.007331
20.855335,-0.017107
20.865339,-0.017107
20.875343,-0.017107
20.885343,-0.012219
20.895343,-0.012219
20.905347,-0.012219
20.915351,-0.021994
20.925352,-0.017107
20.935356,-0.017107
20.945356,-0.017107
20.95536,-0.017107
20.965364,-0.026882
20.975368,-0.021994
20.985376,-0.017107
20.995376,-0.026882
21.005384,-0.021994
21.015388,-0.021994
21.025392,-0.026882
21.035396,-0.012219
21.0454,-0.017107
21.0554,-0.017107
21.065399,-0.017107
21.075399,-0.017107
21.085403,-0.012219
21.095407,-0.007331
21.105407,-0.017107
21.115415,-0.017107
21.125423,-0.012219
21.135427,-0.017107
21.145435,-0.007331
21.155439,-0.012219
21.165447,-0.021994
21.175447,-0.012219
21.185451,-0.007331
21.195455,-0.012219
21.205455,-0.012219
21.215456,-0.012219
21.225456,-0.017107
21.235456,-0.012219
21.24546,-0.012219
21.255464,-0.012219
21.265464,-0.017107
21.275463,-0.017107
21.285467,-0.017107
21.295467,-0.012219
21.305467,-0.012219
21.315467,-0.012219
21.325468,-0.012219
21.335472,-0.017107
21.345476,-0.012219
21.355476,-0.012219
21.365476,-0.017107
21.37548,-0.012219
21.38548,-0.012219
21.395484,-0.007331
21.405483,-0.002444
21.415487,-0.017107
21.425491,-0.017107
21.435491,-0.012219
21.445491,-0.012219
21.455499,-0.012219
21.465499,-0.017107
21.475503,-0.012219
21.485507,-0.012219
21.495508,-0.012219
21.505508,-0.012219
21.515512,-0.012219
21.52552,-0.012219
21.53552,-0.012219
21.54552,-0.002444
21.555519,-0.017107
21.565519,-0.012219
21.575523,-0.012219
21.585523,-0.012219
21.595523,-0.002444
21.605524,-0.012219
21.615524,-0.017107
21.625524,-0.012219
21.635524,-0.007331
21.645528,-0.007331
21.655532,-0.007331
21.665536,-0.021994
21.675535,-0.007331
21.685535,-0.012219
21.695539,-0.012219
21.705543,-0.012219
21.715547,-0.007331
21.725551,-0.012219
21.735551,-0.007331
21.745559,-0.007331
21.755563,-0.017107
21.765567,-0.012219
21.775571,-0.007331
21.785572,-0.007331
21.795572,0.007331
21.80558,-0.017107
21.815584,-0.017107
21.825584,-0.012219
21.835584,-0.012219
21.845584,-0.007331
21.855588,-0.007331
21.865587,-0.021994
21.875587,-0.012219
21.885591,-0.007331
21.895595,-0.012219
21.905599,-0.007331
21.915603,-0.012219
21.925607,-0.012219
21.935611,-0.007331
21.945615,-0.012219
21.955619,-0.017107
21.965623,-0.012219
21.975627,-0.017107
21.985628,-0.012219
21.995628,-0.002444
22.005632,-0.017107
22.015632,-0.012219
22.025632,-0.007331
22.035636,-0.007331
22.04564,-0.007331
22.055643,-0.007331
22.065647,-0.012219
22.075647,-0.002444
22.085655,-0.012219
22.095659,-0.012219
22.105659,-0.007331
22.115659,-0.017107
22.125663,-0.012219
22.135667,-0.012219
22.145668,-0.012219
22.155672,-0.007331
22.165676,-0.007331
22.17568,-0.007331
22.18568,-0.012219
22.195684,-0.002444
22.205684,-0.012219
22.215684,-0.007331
22.225683,-0.012219
22.235683,-0.012219
22.245687,-0.002444
22.255691,-0.012219
22.265691,-0.012219
22.275691,-0.007331
22.285696,-0.012219
22.2957,-0.007331
22.3057,-0.012219
22.3157,-0.017107
22.325704,-0.012219
22.335704,-0.007331
22.345703,-0.007331
22.355703,-0.007331
22.365703,-0.007331
22.375707,-0.007331
22.385711,-0.002444
22.395715,-0.007331
22.405715,-0.007331
22.415716,-0.007331
22.425724,-0.012219
22.435728,-0.007331
22.445728,-0.012219
22.455732,-0.012219
22.465732,-0.007331
22.475732,-0.012219
22.485731,-0.012219
22.495731,-0.007331
22.505735,-0.012219
22.515743,-0.007331
22.525751,-0.007331
22.535751,-0.002444
22.545751,-0.012219
22.555755,-0.002444
22.565759,-0.012219
22.575759,-0.002444
22.585763,0.002444
22.595771,-0.012219
22.605775,-0.007331
22.615776,-0.012219
22.625783,-0.007331
22.635784,-0.002444
22.645788,-0.002444
22.655792,-0.007331
22.6658,-0.007331
22.675807,-0.002444
22.685808,-0.012219
22.695812,-0.012219
22.705812,-0.017107
22.715816,-0.012219
22.725816,-0.007331
22.73582,-0.007331
22.745824,-0.007331
22.755828,-0.007331
22.765827,-0.017107
22.775831,-0.007331
22.785839,-0.007331
22.795843,-0.017107
22.805843,-0.017107
22.815843,-0.021994
22.825843,-0.021994
22.835844,-0.007331
22.845848,-0.021994
22.855848,-0.021994
22.865852,-0.021994
22.875852,-0.021994
22.885852,-0.012219
22.89586,-0.017107
22.905864,-0.026882
22.915864,-0.007331
22.925867,-0.012219
22.935867,-0.012219
22.945871,-0.007331
22.955875,-0.017107
22.965879,-0.012219
22.975883,-0.007331
22.985883,-0.007331
22.995887,-0.007331
23.005887,-0.007331
23.015888,-0.012219
23.025896,-0.007331
23.035896,-0.002444
23.0459,-0.012219
23.0559,-0.007331
23.065904,-0.012219
23.075904,-0.012219
23.085903,-0.002444
23.095903,-0.007331
23.105907,-0.012219
23.115907,-0.007331
23.125911,-0.007331
23.135911,-0.012219
23.145919,-0.002444
23.155923,-0.012219
23.165924,-0.007331
23.175928,-0.002444
23.185932,-0.007331
23.195936,-0.007331
23.20594,-0.012219
23.215944,-0.012219
23.225948,0.002444
23.235952,-0.007331
23.245952,-0.012219
23.255956,-0.007331
23.265956,-0.012219
23.275955,-0.007331
23.285959,-0.002444
23.295959,-0.012219
23.305959,-0.012219
23.315963,-0.007331
23.325967,-0.007331
23.335971,-0.012219
23.345972,-0.017107
23.355972,-0.017107
23.365972,-0.002444
23.375972,-0.017107
23.385976,-0.012219
23.395975,-0.012219
23.405979,-0.017107
23.415979,-0.012219
23.425987,-0.007331
23.435987,-0.012219
23.445995,-0.012219
23.456003,-0.012219
23.466011,-0.017107
23.476015,-0.002444
23.486015,-0.007331
23.496019,-0.017107
23.506019,-0.012219
23.516023,-0.012219
23.526023,-0.012219
23.536024,-0.002444
23.546028,-0.012219
23.556032,-0.012219
23.566032,-0.012219
23.576032,-0.012219
23.586032,-0.007331
23.596031,-0.007331
23.606031,-0.017107
23.616031,-0.007331
23.626035,-0.002444
23.636035,-0.002444
23.646039,-0.002444
23.656044,-0.017107
23.666048,-0.012219
23.676048,-0.007331
23.686048,-0.012219
23.696052,-0.017107
23.70606,-0.012219
23.716064,-0.012219
23.726064,-0.007331
23.736064,-0.007331
23.746063,-0.017107
23.756063,-0.017107
23.766067,-0.012219
23.776067,-0.012219
23.786067,-0.007331
23.796072,-0.007331
23.806076,-0.017107
23.81608,-0.007331
23.826084,-0.012219
23.836091,-0.012219
23.846096,-0.007331
23.856096,-0.012219
23.8661,-0.007331
23.8761,-0.007331
23.8861,-0.012219
23.896104,-0.017107
23.906103,-0.007331
23.916107,-0.017107
23.926111,-0.012219
23.936111,-0.007331
23.946111,-0.017107
23.956115,-0.012219
23.966119,-0.007331
23.976119,-0.007331
23.986124,-0.007331
23.996128,-0.017107
24.006128,-0.012219
24.016132,-0.007331
24.026132,-0.017107
24.036132,-0.007331
24.046131,-0.007331
24.056131,-0.017107
24.066131,-0.012219
24.076135,-0.012219
24.086135,-0.012219
24.096136,-0.002444
24.10614,-0.007331
24.116144,-0.012219
24.126144,-0.007331
24.136144,-0.007331
24.146144,-0.012219
24.156148,-0.012219
24.166147,-0.012219
24.176147,-0.012219
24.186151,0.002444
24.196155,-0.017107
24.206159,-0.012219
24.216167,-0.017107
24.226175,-0.012219
24.236175,-0.002444
24.246179,-0.012219
24.256179,-0.012219
24.26618,-0.002444
24.276187,-0.012219
24.286188,-0.007331
24.296188,-0.002444
24.306196,-0.012219
24.316196,-0.012219
24.326196,-0.012219
24.336196,-0.007331
24.3462,-0.007331
24.356203,-0.012219
24.366207,-0.012219
24.376207,-0.007331
24.386207,-0.012219
24.396207,-0.017107
24.406211,-0.007331
24.416219,-0.012219
24.426219,-0.007331
24.43622,-0.007331
24.44622,-0.017107
24.45622,-0.012219
24.466224,-0.012219
24.476228,-0.012219
24.486228,-0.007331
24.496227,-0.012219
24.506227,-0.012219
24.516231,-0.007331
24.526235,-0.012219
24.536239,-0.002444
24.546239,-0.007331
24.556243,-0.007331
24.566244,-0.007331
24.576248,-0.007331
24.586252,-0.007331
24.596252,-0.017107
24.606256,-0.007331
24.61626,-0.012219
24.626264,-0.002444
24.636268,-0.007331
24.646268,-0.017107
24.656276,-0.002444
24.666276,-0.007331
24.676275,-0.012219
24.686275,-0.002444
24.696275,-0.017107
24.706279,-0.012219
24.716283,-0.002444
24.726284,-0.012219
24.736284,-0.012219
24.746284,-0.007331
24.756284,-0.021994
24.766284,-0.012219
24.776287,-0.012219
24.786296,-0.017107
24.796295,-0.017107
24.806295,-0.021994
24.816295,-0.017107
24.826303,-0.017107
24.836311,-0.021994
24.846311,-0.026882
24.856311,-0.017107
24.866315,-0.021994
24.876316,-0.017107
24.886316,-0.007331
24.896316,-0.026882
24.90632,-0.017107
24.91632,-0.017107
24.926319,-0.017107
24.936319,-0.012219
24.946323,-0.017107
24.956323,-0.012219
24.966323,-0.002444
24.976324,-0.012219
24.986324,-0.012219
24.996324,-0.007331
25.006328,-0.012219
25.016328,-0.012219
25.026336,-0.002444
25.036336,-0.007331
25.04634,-0.017107
25.056339,-0.002444
25.066339,-0.017107
25.076339,-0.012219
25.086343,-0.012219
25.096343,-0.017107
25.106348,-0.012219
25.116352,-0.012219
25.126352,-0.007331
25.136352,-0.002444
25.14636,-0.017107
25.156364,-0.017107
25.166368,-0.002444
25.176376,-0.017107
25.186376,-0.012219
25.19638,-0.012219
25.20638,-0.017107
25.216384,-0.012219
25.226392,-0.007331
25.236391,-0.012219
25.2464,-0.012219
25.256399,-0.017107
25.266399,-0.021994
25.276403,-0.021994
25.286411,-0.036657
25.296415,-0.036657
25.306415,-0.041544
25.316419,-0.041544
25.326423,-0.036657
25.336423,-0.031769
25.346427,-0.041544
25.356431,-0.026882
25.366432,-0.026882
25.376436,-0.021994
25.38644,-0.021994
25.396444,-0.021994
25.406444,-0.017107
25.416448,-0.012219
25.426452,-0.012219
25.436456,-0.012219
25.44646,-0.012219
25.45646,-0.012219
25.466459,-0.007331
25.476459,-0.012219
25.486459,-0.017107
25.496459,-0.017107
25.50646,-0.007331
25.51646,-0.012219
25.526464,-0.007331
25.536468,-0.007331
25.546468,-0.017107
25.556472,-0.007331
25.566471,-0.012219
25.576475,-0.007331
25.586475,-0.007331
25.596475,-0.012219
25.606475,-0.012219
25.616479,-0.007331
25.626483,-0.017107
25.636487,-0.012219
25.646492,-0.017107
25.656492,-0.012219
25.666496,-0.002444
25.6765,-0.007331
25.6865,-0.017107
25.696504,-0.012219
25.706508,-0.012219
25.716512,-0.007331
25.726512,-0.002444
25.736511,-0.017107
25.746515,-0.017107
25.756519,-0.007331
25.766523,-0.012219
25.776527,-0.002444
25.786531,-0.007331
25.796531,-0.017107
25.806535,-0.007331
25.816535,-0.007331
25.826536,-0.007331
25.836536,-0.007331
25.84654,-0.007331
25.856544,-0.012219
25.866548,-0.002444
25.876552,-0.012219
25.886552,-0.012219
25.896551,-0.002444
25.906555,-0.007331
25.916559,-0.007331
25.926563,-0.007331
25.936563,-0.012219
25.946563,-0.012219
25.956563,-0.002444
25.966571,-0.012219
25.976572,-0.007331
25.986572,-0.012219
25.996572,-0.012219
26.006576,-0.007331
26.01658,-0.012219
26.026584,-0.002444
26.036584,-0.002444
26.046583,-0.007331
26.056583,-0.012219
26.066587,-0.002444
26.076591,-0.007331
26.086595,-0.002444
26.096595,-0.012219
26.106595,-0.012219
26.116596,0.007331
26.1266,-0.007331
26.136604,-0.012219
26.146608,-0.007331
26.156608,-0.007331
26.166612,-0.007331
26.176612,-0.002444
26.186611,-0.007331
26.196615,-0.007331
26.206615,-0.002444
26.216615,-0.007331
26.226615,0.002444
26.236616,-0.002444
26.246623,-0.012219
26.256631,-0.007331
26.266639,-0.007331
26.276643,-0.012219
26.286643,-0.007331
26.296648,-0.012219
26.306648,-0.012219
26.316652,-0.002444
26.326652,-0.007331
26.336656,-0.007331
26.346656,-0.007331
26.35666,-0.012219
26.366659,-0.007331
26.376659,-0.002444
26.386659,-0.012219
26.396663,-0.007331
26.406667,-0.002444
26.416667,-0.007331
26.426671,0.007331
26.436676,-0.007331
26.44668,-0.012219
26.456684,0.002444
26.466688,-0.007331
26.476696,-0.002444
26.4867,-0.002444
26.496704,-0.007331
26.506704,-0.007331
26.516712,-0.002444
26.52672,-0.007331
26.536724,-0.002444
26.546724,-0.007331
26.556728,-0.007331
26.566732,-0.007331
26.576732,-0.012219
26.586732,-0.012219
26.596731,-0.012219
26.606735,-0.002444
26.616735,-0.002444
26.626739,-0.002444
26.636743,-0.012219
26.646747,-0.007331
26.656747,-0.007331
26.666748,-0.007331
26.676752,-0.002444
26.686752,-0.007331
26.696756,-0.021994
26.706756,-0.012219
26.716756,-0.017107
26.726755,-0.017107
26.736755,-0.012219
26.746755,-0.021994
26.756759,-0.017107
26.766759,-0.007331
26.776763,-0.017107
26.786767,-0.012219
26.796768,-0.017107
26.806768,-0.021994
26.816772,-0.021994
26.826776,-0.017107
26.836776,-0.017107
26.846775,-0.002444
26.856779,-0.007331
26.866783,-0.012219
26.876783,-0.012219
26.886783,-0.012219
26.896787,-0.012219
26.906791,-0.002444
26.916795,-0.017107
26.926799,-0.012219
26.9368,-0.012219
26.946807,-0.012219
26.956811,-0.007331
26.966812,-0.002444
26.976812,-0.017107
26.986812,-0.007331
26.996812,-0.012219
27.006816,-0.012219
27.016815,-0.007331
27.026819,-0.007331
27.036819,-0.017107
27.046819,-0.007331
27.056823,-0.007331
27.066823,-0.007331
27.076824,-0.007331
27.086824,-0.017107
27.096824,-0.012219
27.106828,-0.012219
27.116832,-0.007331
27.126831,0.002444
27.136835,-0.007331
27.146839,-0.012219
27.156848,-0.002444
27.166852,-0.002444
27.176851,-0.007331
27.186855,-0.007331
27.196859,-0.007331
27.206859,-0.002444
27.216859,-0.007331
27.22686,-0.012219
27.236864,-0.007331
27.246864,-0.007331
27.256868,-0.012219
27.266872,-0.007331
27.276876,-0.007331
27.28688,-0.012219
27.296888,-0.012219
27.306888,-0.012219
27.316892,-0.007331
27.326896,-0.007331
27.336896,-0.012219
27.346895,-0.012219
27.356899,-0.002444
27.366907,-0.012219
27.376911,-0.007331
27.386911,-0.007331
27.396915,-0.017107
27.406919,-0.007331
27.416923,-0.012219
27.426927,-0.012219
27.436927,-0.002444
27.446931,-0.007331
27.456935,-0.012219
27.466939,-0.007331
27.47694,-0.017107
27.48694,-0.012219
27.49694,-0.007331
27.506944,-0.002444
27.516948,-0.007331
27.526948,-0.012219
27.536956,-0.012219
27.546955,-0.012219
27.556955,-0.007331
27.566955,-0.012219
27.576959,-0.007331
27.586963,-0.007331
27.596963,-0.012219
27.606967,-0.007331
27.616968,-0.007331
27.626976,-0.012219
27.636976,-0.007331
27.64698,-0.012219
27.65698,-0.012219
27.66698,-0.002444
27.676984,-0.017107
27.686988,-0.012219
27.696992,-0.007331
27.706996,-0.017107
27.716995,-0.002444
27.726995,-0.012219
27.736999,-0.012219
27.746999,-0.007331
27.756999,-0.007331
27.767004,-0.012219
27.777004,-0.007331
27.787004,-0.012219
27.797008,-0.007331
27.807012,-0.007331
27.817012,-0.012219
27.827016,-0.007331
27.837015,-0.007331
27.847019,-0.017107
27.857019,-0.007331
27.867023,-0.007331
27.877023,-0.017107
27.887027,-0.007331
27.897031,-0.012219
27.907035,-0.012219
27.917039,-0.007331
27.92704,-0.007331
27.93704,-0.007331
27.947044,-0.007331
27.957048,-0.012219
27.967052,-0.007331
27.97706,-0.012219
27.987068,-0.017107
27.997076,-0.007331
28.00708,-0.002444
28.017087,-0.007331
28.027095,-0.012219
28.037096,-0.007331
28.0471,-0.012219
28.0571,-0.002444
28.067104,-0.012219
28.077104,-0.012219
28.087104,-0.012219
28.097103,-0.012219
28.107107,-0.012219
28.117107,-0.007331
28.127107,-0.017107
28.137107,-0.007331
28.147108,-0.012219
28.157115,-0.007331
28.167119,-0.007331
28.187124,-0.012219
28.197128,-0.012219
28.207132,-0.012219
28.217136,-0.012219
28.227136,-0.012219
28.237136,-0.017107
28.24714,-0.012219
28.257139,-0.007331
28.267143,-0.012219
28.277143,-0.012219
28.287143,-0.012219
28.297147,-0.017107
28.307151,-0.007331
28.317155,-0.012219
28.327159,-0.021994
28.33716,-0.012219
28.34716,-0.012219
28.35716,-0.012219
28.367164,-0.007331
28.377168,-0.017107
28.387168,-0.012219
28.397172,-0.017107
28.407171,-0.007331
28.417171,-0.012219
28.427175,-0.017107
28.437179,-0.021994
28.447183,-0.017107
28.457187,-0.017107
28.467191,-0.012219
28.477195,-0.012219
28.487203,-0.012219
28.497207,-0.012219
28.507211,-0.012219
28.517215,-0.012219
28.527219,-0.012219
28.537223,-0.012219
28.547231,-0.021994
28.557231,-0.021994
28.567232,-0.017107
28.577236,-0.026882
28.587236,-0.021994
28.59724,-0.021994
28.60724,-0.021994
28.617244,-0.017107
28.627244,-0.021994
28.637247,-0.026882
28.647247,-0.017107
28.657247,-0.021994
28.667247,-0.021994
28.677248,-0.021994
28.687252,-0.021994
28.697252,-0.026882
28.707252,-0.012219
28.717256,-0.021994
28.727256,-0.021994
28.737255,-0.017107
28.747259,-0.026882
28.757268,-0.012219
28.767276,-0.012219
28.777275,-0.026882
28.787284,-0.017107
28.797288,-0.021994
28.807287,-0.021994
28.817287,-0.017107
28.827287,-0.021994
28.837287,-0.017107
28.847288,-0.012219
28.857288,-0.017107
28.867288,-0.002444
28.877288,-0.017107
28.887287,-0.021994
28.897291,-0.012219
28.9073,-0.017107
28.917303,-0.017107
28.927303,-0.007331
28.937303,-0.021994
28.947307,-0.021994
28.957311,-0.012219
28.967311,-0.017107
28.977315,-0.021994
28.987319,-0.017107
28.99732,-0.021994
29.007324,-0.017107
29.017324,-0.012219
29.027328,-0.021994
29.037332,-0.021994
29.047332,-0.017107
29.057336,-0.021994
29.06734,-0.007331
29.077339,-0.021994
29.087348,-0.021994
29.097347,-0.017107
29.107347,-0.021994
29.117347,-0.017107
29.127347,-0.017107
29.137348,-0.026882
29.147348,-0.021994
29.157352,-0.012219
29.167356,-0.017107
29.177356,-0.017107
29.187356,-0.017107
29.197359,-0.021994
29.207359,-0.017107
29.217363,-0.012219
29.227367,-0.026882
29.237371,-0.012219
29.247375,-0.021994
29.257375,-0.021994
29.267379,-0.012219
29.277379,-0.021994
29.287384,-0.021994
29.297384,-0.017107
29.307384,-0.017107
29.317392,-0.012219
29.327396,-0.017107
29.3374,-0.017107
29.3474,-0.012219
29.357404,-0.021994
29.367404,-0.012219
29.377403,-0.017107
29.387403,-0.021994
29.397403,-0.021994
29.407403,-0.017107
29.417407,-0.021994
29.427412,-0.021994
29.437412,-0.017107
29.447412,-0.021994
29.457416,-0.012219
29.46742,-0.012219
29.47742,-0.026882
29.487419,-0.017107
29.497423,-0.017107
29.507423,-0.017107
29.517427,-0.017107
29.527427,-0.026882
29.537431,-0.026882
29.547431,-0.012219
29.557435,-0.021994
29.56744,-0.021994
29.577444,-0.017107
29.587448,-0.021994
29.597455,-0.021994
29.607463,-0.017107
29.617467,-0.021994
29.627471,-0.021994
29.637472,-0.021994
29.647472,-0.026882
29.657476,-0.012219
29.667476,-0.021994
29.67748,-0.021994
29.68748,-0.021994
29.697479,-0.021994
29.707479,-0.017107
29.717483,-0.017107
29.727487,-0.031769
29.737495,-0.021994
29.747495,-0.012219
29.757495,-0.021994
29.767499,-0.021994
29.7775,-0.021994
29.787504,-0.021994
29.797508,-0.017107
29.807512,-0.021994
29.817516,-0.021994
29.82752,-0.017107
29.83752,-0.021994
29.847524,-0.021994
29.857528,-0.017107
29.867528,-0.021994
29.877527,-0.017107
29.887527,-0.021994
29.897531,-0.021994
29.907535,-0.012219
29.917535,-0.021994
29.927536,-0.026882
29.93754,-0.017107
29.94754,-0.026882
29.95754,-0.017107
29.96754,-0.021994
29.977544,-0.021994
29.987548,-0.021994
29.997547,-0.017107
30.007551,-0.017107
30.017551,-0.017107
30.027555,-0.021994
30.037563,-0.026882
30.047567,-0.017107
30.057571,-0.017107
30.067571,-0.021994
30.077571,-0.021994
30.087572,-0.017107
30.097576,-0.021994
30.107576,-0.017107
30.11758,-0.021994
30.12758,-0.021994
30.13758,-0.026882
30.147579,-0.026882
30.157583,-0.041544
30.167583,-0.041544
30.177583,-0.056207
30.187583,-0.05132
30.197587,-0.05132
30.207588,-0.05132
30.217592,-0.046432
30.227592,-0.041544
30.237592,-0.046432
30.247592,-0.036657
30.2576,-0.036657
30.267599,-0.036657
30.277603,-0.031769
30.287603,-0.031769
30.297611,-0.031769
30.307611,-0.026882
30.317611,-0.031769
30.327619,-0.026882
30.337619,-0.021994
30.34762,-0.026882
30.357624,-0.012219
30.367631,-0.017107
30.377635,-0.026882
30.387636,-0.017107
30.397636,-0.012219
30.407636,-0.017107
30.417636,-0.012219
30.427635,-0.026882
30.437635,-0.021994
30.447639,-0.017107
30.457639,-0.021994
30.467639,-0.021994
30.47764,-0.017107
30.48764,-0.021994
30.49764,-0.017107
30.507644,-0.017107
30.517644,-0.021994
30.527648,-0.012219
30.537647,-0.012219
30.547651,-0.017107
30.557655,-0.012219
30.567659,-0.026882
30.577659,-0.026882
30.587659,-0.021994
30.59766,-0.021994
30.60766,-0.017107
30.617664,-0.026882
30.627664,-0.031769
30.637664,-0.021994
30.647668,-0.021994
30.657672,-0.017107
30.667671,-0.026882
30.677671,-0.026882
30.687683,-0.026882
30.697687,-0.012219
30.707687,-0.021994
30.717687,-0.031769
30.727687,-0.026882
30.737688,-0.026882
30.747688,-0.026882
30.757696,-0.021994
30.767696,-0.026882
30.777696,-0.021994
30.787696,-0.026882
30.7977,-0.021994
30.807699,-0.012219
30.817699,-0.021994
30.827703,-0.021994
30.837707,-0.017107
30.847707,-0.017107
30.857711,-0.007331
30.867712,-0.012219
30.877719,-0.021994
30.887723,-0.012219
30.897727,-0.017107
30.907728,-0.017107
30.917732,-0.017107
30.927732,-0.017107
30.937732,-0.021994
30.947732,-0.017107
30.957731,-0.007331
30.967735,-0.021994
30.977735,-0.007331
30.987739,-0.012219
30.997739,-0.017107
31.007743,-0.007331
31.017747,-0.017107
31.027748,-0.017107
31.037752,-0.017107
31.047756,-0.017107
31.057756,-0.007331
31.06776,-0.017107
31.07776,-0.021994
31.08776,-0.007331
31.097763,-0.012219
31.107767,-0.017107
31.117767,-0.017107
31.127771,-0.021994
31.137775,-0.021994
31.147775,-0.007331
31.157783,-0.017107
31.167787,-0.017107
31.177791,-0.012219
31.187795,-0.021994
31.197795,-0.017107
31.207803,-0.002444
31.217803,-0.021994
31.227804,-0.012219
31.237808,-0.012219
31.247808,-0.012219
31.257808,-0.002444
31.267812,-0.017107
31.27782,-0.021994
31.28782,-0.007331
31.297828,-0.017107
31.307832,-0.012219
31.317832,-0.012219
31.327835,-0.017107
31.337835,-0.012219
31.347839,-0.007331
31.357843,-0.012219
31.367843,-0.017107
31.377843,-0.012219
31.387844,-0.017107
31.397848,-0.007331
31.407852,-0.017107
31.417852,-0.012219
31.427856,-0.012219
31.43786,-0.012219
31.44786,-0.012219
31.45786,-0.002444
31.467863,-0.017107
31.477867,-0.017107
31.487871,-0.012219
31.497875,-0.017107
31.507875,-0.017107
31.517875,-0.017107
31.527879,-0.017107
31.537879,-0.012219
31.54788,-0.012219
31.55788,-0.012219
31.567884,-0.007331
31.577884,-0.017107
31.587888,-0.007331
31.597892,-0.012219
31.607891,-0.017107
31.617891,-0.012219
31.627891,-0.012219
31.637891,-0.012219
31.647891,-0.007331
31.657892,-0.012219
31.667892,-0.017107
31.677896,-0.007331
31.6879,-0.012219
31.697904,-0.007331
31.707904,-0.002444
31.717903,-0.017107
31.727903,-0.007331
31.737903,-0.012219
31.747911,-0.007331
31.757911,-0.017107
31.767915,-0.007331
31.777919,-0.017107
31.787919,-0.007331
31.797924,0.002444
31.807935,-0.017107
31.817939,-0.007331
31.827939,-0.012219
31.83794,-0.012219
31.847944,-0.002444
31.857948,-0.007331
31.867948,-0.012219
31.877952,-0.012219
31.887956,-0.007331
31.897956,-0.012219
31.90796,-0.007331
31.917959,-0.017107
31.927959,-0.012219
31.937963,-0.007331
31.947967,-0.012219
31.957967,-0.007331
31.967971,-0.012219
31.977972,-0.012219
31.987976,-0.007331
31.99798,-0.002444
32.00798,-0.007331
32.017978,-0.007331
32.027984,-0.012219
32.03799,-0.017107
32.047996,-0.007331
32.057994,-0.012219
32.067996,-0.012219
32.077995,-0.012219
32.087997,-0.012219
32.097995,-0.007331
32.107997,-0.007331
32.118,-0.012219
32.127998,-0.002444
32.138,-0.012219
32.148006,-0.012219
32.158012,-0.007331
32.168018,-0.017107
32.17802,-0.012219
32.188026,-0.012219
32.198032,-0.012219
32.20803,-0.007331
32.21804,-0.007331
32.228042,-0.017107
32.238044,-0.007331
32.248043,-0.007331
32.258045,-0.012219
32.268043,-0.007331
32.278049,-0.007331
32.288047,-0.012219
32.298053,-0.012219
32.308052,-0.017107
32.318054,-0.017107
32.328056,-0.007331
32.338058,-0.002444
32.34806,-0.007331
32.358058,-0.007331
32.368064,-0.012219
32.378063,-0.002444
32.388065,-0.007331
32.398063,-0.007331
32.408065,-0.012219
32.418067,-0.012219
32.428066,-0.012219
32.438068,-0.002444
32.448066,-0.007331
32.458072,-0.007331
32.46807,-0.002444
32.478073,-0.012219
32.488071,-0.002444
32.498073,0.002444
32.508079,-0.012219
32.518089,-0.007331
32.528087,-0.007331
32.538089,-0.012219
32.548091,-0.002444
32.55809,0.002444
32.568096,-0.012219
32.578098,-0.002444
32.5881,-0.007331
32.598102,-0.007331
32.608104,-0.012219
32.618103,-0.012219
32.628108,-0.012219
32.638111,-0.007331
32.648113,-0.012219
32.658119,-0.007331
32.668121,-0.012219
32.678119,-0.017107
32.688121,-0.012219
32.698123,-0.007331
32.708122,-0.017107
32.718128,-0.012219
32.728134,-0.017107
32.738136,-0.012219
32.748142,-0.007331
32.758144,-0.017107
32.768146,-0.012219
32.778148,-0.007331
32.788146,-0.012219
32.798152,-0.012219
32.808155,-0.012219
32.818161,-0.012219
32.828159,-0.002444
32.838161,-0.002444
32.848159,-0.007331
32.858165,-0.002444
32.868164,-0.007331
32.878166,-0.012219
32.888175,-0.002444
32.898178,-0.002444
32.908184,-0.007331
32.918182,0.002444
32.928192,-0.012219
32.93819,-0.002444
32.948196,-0.002444
32.958202,-0.012219
32.968204,-0.007331
32.97821,-0.002444
32.988216,-0.007331
32.998218,-0.002444
33.008224,-0.007331
33.01823,-0.007331
33.028232,-0.002444
33.03823,-0.002444
33.048233,-0.002444
33.058238,-0.007331
33.068241,-0.007331
33.078239,-0.007331
33.088241,-0.002444
33.098247,-0.007331
33.108249,-0.007331
33.118247,-0.007331
33.128246,-0.007331
33.138248,-0.007331
33.148246,-0.002444
33.158252,-0.012219
33.168251,-0.002444
33.178256,-0.007331
33.188255,-0.007331
33.198257,-0.002444
33.208259,-0.012219
33.218261,-0.007331
33.228263,0.002444
33.238269,-0.012219
33.248268,0.002444
33.25827,-0.002444
33.26828,-0.012219
33.278282,-0.007331
33.288284,-0.002444
33.298286,-0.002444
33.308288,-0.007331
33.318286,-0.002444
33.328292,-0.007331
33.338291,0.002444
33.348297,0.002444
33.358295,-0.002444
33.368301,-0.002444
33.378303,-0.002444
33.388305,-0.002444
33.398311,0.002444
33.408321,-0.012219
33.418319,-0.002444
33.428325,-0.002444
33.438323,-0.007331
33.448326,0.007331
33.458328,-0.007331
33.46833,-0.012219
33.478336,-0.002444
33.488338,-0.002444
33.49834,-0.002444
33.508338,-0.002444
33.518341,-0.007331
33.528343,-0.007331
33.538345,-0.002444
33.548347,-0.002444
33.558349,-0.002444
33.568347,-0.007331
33.578353,-0.007331
33.588352,-0.002444
33.598354,-0.007331
33.608356,-0.012219
33.618366,-0.007331
33.628368,-0.007331
33.63837,-0.007331
33.648376,0.007331
33.658378,-0.007331
33.66838,0.002444
33.678379,0.002444
33.688385,-0.002444
33.698387,0.002444
33.708393,-0.002444
33.718391,-0.007331
33.728393,-0.007331
33.738399,0.002444
33.748401,-0.007331
33.758403,-0.002444
33.768402,-0.007331
33.778408,-0.007331
33.788406,-0.002444
33.798408,-0.007331
33.80841,-0.007331
33.818412,-0.007331
33.828414,-0.007331
33.838417,-0.002444
33.848415,-0.002444
33.858421,-0.007331
33.868423,-0.007331
33.878425,-0.002444
33.888427,-0.002444
33.898433,-0.002444
33.908435,-0.012219
33.918434,-0.007331
33.92844,-0.002444
33.938438,-0.007331
33.948444,-0.002444
33.958446,-0.007331
33.968452,-0.012219
33.978454,-0.007331
33.98846,0.002444
33.998462,-0.007331
34.008468,-0.007331
34.018466,-0.007331
34.028472,-0.007331
34.038471,-0.002444
34.048473,-0.002444
34.058471,-0.012219
34.068481,-0.002444
34.078487,-0.007331
34.088489,-0.002444
34.098491,0.002444
34.108493,-0.007331
34.118495,-0.007331
34.128501,-0.007331
34.1385,-0.002444
34.148498,-0.002444
34.158504,-0.002444
34.168502,-0.007331
34.178504,0.002444
34.188503,-0.002444
34.198513,-0.007331
34.208511,-0.007331
34.218517,-0.002444
34.228519,-0.007331
34.238525,-0.007331
34.248527,-0.002444
34.258533,0.002444
34.268531,-0.012219
34.278537,-0.007331
34.288539,-0.002444
34.298545,-0.002444
34.308544,-0.012219
34.318542,-0.002444
34.328548,0.007331
34.338546,-0.002444
34.348548,-0.002444
34.358547,-0.012219
34.368549,-0.007331
34.378547,0.007331
34.388553,-0.012219
34.398555,0.002444
34.408565,-0.002444
34.418563,-0.012219
34.428562,-0.007331
34.438568,-0.002444
34.44857,-0.007331
34.458576,-0.002444
34.468578,-0.002444
34.478588,-0.007331
34.48859,-0.007331
34.4986,-0.012219
34.508602,-0.017107
34.518608,-0.007331
34.52861,-0.012219
34.538616,-0.007331
34.548614,-0.012219
34.55862,-0.021994
34.568618,-0.012219
34.57862,-0.012219
34.588619,-0.017107
34.598625,-0.002444
34.608627,-0.012219
34.618633,-0.012219
34.628639,-0.002444
34.638645,-0.007331
34.648647,-0.007331
34.658657,-0.002444
34.668663,-0.012219
34.678668,-0.002444
34.688671,-0.002444
34.698677,-0.007331
34.708679,-0.012219
34.718685,-0.007331
34.728687,-0.007331
34.738693,-0.002444
34.748695,-0.007331
34.758701,-0.012219
34.768703,-0.002444
34.778713,-0.007331
34.788715,-0.002444
34.798717,0.002444
34.808719,-0.007331
34.818721,-0.007331
34.82872,-0.002444
34.838718,-0.007331
34.848724,-0.007331
34.858722,-0.012219
34.868724,-0.007331
34.878726,0.002444
34.888729,-0.002444
34.898727,-0.007331
34.908733,-0.007331
34.918731,-0.007331
34.928733,-0.007331
34.94873,-0.007331
34.958736,-0.007331
34.968734,-0.007331
34.97874,-0.007331
34.988742,-0.007331
34.998748,-0.002444
35.008747,-0.012219
35.018753,-0.002444
35.028751,-0.007331
35.038753,-0.012219
35.048751,-0.007331
35.05875,-0.007331
35.068756,-0.012219
35.078758,-0.002444
35.08876,-0.012219
35.098762,-0.012219
35.108764,-0.012219
35.118766,-0.007331
35.128768,-0.012219
35.138774,0.002444
35.14878,-0.012219
35.158782,-0.012219
35.168788,-0.002444
35.178787,-0.012219
35.188789,-0.002444
35.198791,-0.012219
35.208797,-0.017107
35.218799,-0.007331
35.228809,-0.012219
35.238811,-0.002444
35.248813,-0.007331
35.258815,-0.012219
35.268821,-0.012219
35.27882,-0.007331
35.288822,-0.012219
35.298828,-0.012219
35.308826,-0.007331
35.318832,-0.017107
35.328834,-0.007331
35.338836,-0.007331
35.348838,-0.026882
35.35884,-0.031769
35.368839,-0.031769
35.378849,-0.036657
35.388847,-0.036657
35.398857,-0.041544
35.408859,-0.036657
35.418865,-0.036657
35.428863,-0.041544
35.438865,-0.026882
35.448871,-0.026882
35.458873,-0.031769
35.468879,-0.017107
35.478881,-0.021994
35.48888,-0.017107
35.498878,-0.017107
35.508888,-0.021994
35.51889,-0.017107
35.528892,-0.007331
35.53889,-0.007331
35.548896,-0.017107
35.558898,-0.012219
35.568904,-0.017107
35.578903,-0.007331
35.588905,0.002444
35.598903,-0.021994
35.608909,-0.012219
35.618907,-0.007331
35.628913,-0.017107
35.638912,-0.007331
35.648914,-0.012219
35.658916,-0.017107
35.668918,-0.012219
35.678924,-0.017107
35.688926,-0.007331
35.698932,-0.012219
35.708934,-0.017107
35.71894,-0.002444
35.728942,-0.007331
35.738945,-0.012219
35.74895,-0.012219
35.758956,-0.017107
35.768959,-0.007331
35.778961,-0.007331
35.788959,-0.007331
35.798961,-0.012219
35.808959,-0.007331
35.818962,-0.012219
35.828964,-0.012219
35.838966,-0.007331
35.848972,-0.017107
35.858974,-0.012219
35.86898,-0.007331
35.878978,-0.012219
35.888984,-0.007331
35.898983,-0.012219
35.908985,-0.017107
35.918987,-0.012219
35.928993,-0.007331
35.938995,-0.012219
35.949001,-0.012219
35.959003,-0.017107
35.969005,-0.012219
35.979007,-0.002444
35.989009,-0.012219
35.999008,-0.017107
36.009014,-0.017107
36.01902,-0.017107
36.029018,-0.017107
36.039024,-0.012219
36.049026,-0.026882
36.059028,-0.017107
36.069026,-0.017107
36.07904,-0.021994
36.089042,-0.012219
36.099048,-0.021994
36.10905,-0.021994
36.11906,-0.017107
36.129058,-0.017107
36.13906,-0.021994
36.149063,-0.017107
36.159069,-0.021994
36.169067,-0.021994
36.179069,-0.017107
36.189067,-0.021994
36.199077,-0.017107
36.209075,-0.021994
36.219074,-0.026882
36.229076,-0.021994
36.239074,-0.021994
36.249076,-0.026882
36.259075,-0.017107
36.269077,-0.026882
36.279075,-0.021994
36.289077,-0.017107
36.299076,-0.026882
36.309078,-0.021994
36.319087,-0.026882
36.32909,-0.026882
36.339099,-0.021994
36.349098,-0.026882
36.359104,-0.036657
36.369106,-0.017107
36.379108,-0.031769
36.389106,-0.026882
36.399116,-0.026882
36.409118,-0.031769
36.419124,-0.026882
36.429122,-0.017107
36.439128,-0.021994
36.449127,-0.021994
36.459129,-0.017107
36.469131,-0.026882
36.479133,-0.017107
36.489139,-0.026882
36.499145,-0.026882
36.509143,-0.021994
36.519149,-0.021994
36.529151,-0.017107
36.539157,-0.021994
36.54916,-0.026882
36.559162,-0.021994
36.569168,-0.017107
36.579166,-0.021994
36.589168,-0.021994
36.599166,-0.017107
36.649177,-0.041544
36.659179,-0.041544
36.669181,-0.041544
36.679183,-0.031769
36.689186,-0.041544
36.699192,-0.046432
36.70919,-0.036657
36.719196,-0.041544
36.729202,-0.041544
36.739204,-0.036657
36.74921,-0.046432
36.75922,-0.041544
36.769218,-0.036657
36.779224,-0.036657
36.789222,-0.036657
36.799232,-0.041544
36.80923,-0.046432
36.819236,-0.036657
36.829238,-0.041544
36.839244,-0.046432
36.849243,-0.036657
36.859249,-0.041544
36.869247,-0.041544
36.879253,-0.036657
36.889255,-0.046432
36.899269,-0.036657
36.909271,-0.041544
36.919273,-0.046432
36.929271,-0.041544
36.939273,-0.036657
36.949272,-0.046432
36.959274,-0.046432
36.969276,-0.041544
36.979274,-0.041544
36.98928,-0.036657
36.999279,-0.046432
37.009284,-0.046432
37.019287,-0.041544
37.029293,-0.046432
37.039291,-0.041544
37.049297,-0.046432
37.059295,-0.046432
37.069297,-0.036657
37.079299,-0.036657
37.089305,-0.046432
37.099308,-0.041544
37.109306,-0.041544
37.119312,-0.046432
37.129314,-0.036657
37.13932,-0.046432
37.149322,-0.046432
37.159324,-0.041544
37.169326,-0.046432
37.179328,-0.041544
37.189327,-0.046432
37.199329,-0.05132
37.209327,-0.046432
37.219329,-0.036657
37.229328,-0.046432
37.239326,-0.046432
37.249332,-0.046432
37.259334,-0.046432
37.269344,-0.041544
37.279342,-0.046432
37.289344,-0.05132
37.299346,-0.036657
37.309349,-0.05132
37.319351,-0.046432
37.329353,-0.046432
37.339351,-0.05132
37.349353,-0.046432
37.359352,-0.041544
37.36935,-0.05132
37.379356,-0.041544
37.389358,-0.046432
37.399364,-0.05132
37.409362,-0.046432
37.419372,-0.05132
37.429374,-0.046432
37.43938,-0.05132
37.449382,-0.046432
37.459396,-0.046432
37.469398,-0.046432
37.479404,-0.046432
37.489406,-0.046432
37.499408,-0.046432
37.509407,-0.046432
37.519412,-0.046432
37.529415,-0.036657
37.539417,-0.05132
37.549415,-0.041544
37.559417,-0.046432
37.569423,-0.046432
37.579433,-0.041544
37.589439,-0.05132
37.599445,-0.05132
37.609443,-0.036657
37.619449,-0.046432
37.629451,-0.041544
37.639457,-0.046432
37.649459,-0.056207
37.659458,-0.05132
37.66946,-0.046432
37.679458,-0.041544
37.689464,-0.041544
37.699466,-0.041544
37.709468,-0.046432
37.719474,-0.041544
37.72948,-0.041544
37.739479,-0.05132
37.749485,-0.036657
37.759487,-0.046432
37.769489,-0.041544
37.779491,-0.041544
37.789493,-0.056207
37.799491,-0.046432
37.80949,-0.036657
37.819492,-0.046432
37.82949,-0.036657
37.839496,-0.046432
37.849498,-0.046432
37.8595,-0.036657
37.869506,-0.046432
37.879512,-0.046432
37.889518,-0.036657
37.899528,-0.046432
37.90953,-0.046432
37.919532,-0.041544
37.929534,-0.046432
37.939537,-0.041544
37.949535,-0.041544
37.959541,-0.046432
37.969539,-0.041544
37.979541,-0.041544
37.989543,-0.05132
37.999549,-0.041544
38.009548,-0.046432
38.019546,-0.041544
38.029548,-0.036657
38.03955,-0.046432
38.049556,-0.046432
38.059558,-0.041544
38.069561,-0.046432
38.079563,-0.041544
38.089569,-0.026882
38.099571,-0.05132
38.109573,-0.041544
38.119571,-0.041544
38.129577,-0.036657
38.139575,-0.046432
38.149574,-0.046432
38.159576,-0.056207
38.169574,-0.046432
38.179584,-0.05132
38.189586,-0.05132
38.199588,-0.046432
38.209587,-0.056207
38.219589,-0.05132
38.229587,-0.041544
38.239593,-0.056207
38.249595,-0.046432
38.259597,-0.05132
38.269596,-0.056207
38.279594,-0.05132
38.2896,-0.05132
38.299598,-0.056207
38.309604,-0.041544
38.319602,-0.041544
38.329605,-0.036657
38.339603,-0.046432
38.349613,-0.046432
38.359615,-0.046432
38.369617,-0.041544
38.379619,-0.041544
38.389621,-0.046432
38.399623,-0.041544
38.409622,-0.05132
38.419628,-0.046432
38.42963,-0.041544
38.439636,-0.046432
38.449638,-0.036657
38.45964,-0.041544
38.469638,-0.041544
38.479644,-0.036657
38.489643,-0.05132
38.499649,-0.041544
38.509654,-0.041544
38.519657,-0.036657
38.529655,-0.041544
38.539657,-0.041544
38.549655,-0.046432
38.559661,-0.036657
38.569664,-0.041544
38.579666,-0.046432
38.589672,-0.036657
38.59967,-0.041544
38.609672,-0.041544
38.61967,-0.041544
38.629676,-0.036657
38.639675,-0.046432
38.649677,-0.036657
38.659675,-0.041544
38.669681,-0.036657
38.679679,-0.041544
38.689685,-0.05132
38.699687,-0.041544
38.709701,-0.041544
38.719703,-0.041544
38.729709,-0.041544
38.739711,-0.041544
38.749713,-0.041544
38.759716,-0.036657
38.769718,-0.036657
38.779727,-0.041544
38.789733,-0.031769
38.799739,-0.041544
38.809745,-0.036657
38.819744,-0.041544
38.829742,-0.041544
38.839752,-0.041544
38.84975,-0.041544
38.859752,-0.041544
38.869754,-0.036657
38.879756,-0.036657
38.889759,-0.041544
38.899765,-0.036657
38.909767,-0.036657
38.919769,-0.036657
38.929767,-0.041544
38.939769,-0.046432
38.949771,-0.036657
38.959777,-0.036657
38.969776,-0.036657
38.979774,-0.036657
38.98978,-0.036657
38.999782,-0.036657
39.009788,-0.036657
39.019786,-0.026882
39.029792,-0.036657
39.039791,-0.036657
39.049797,-0.036657
39.059795,-0.036657
39.069797,-0.026882
39.079799,-0.036657
39.089801,-0.036657
39.0998,-0.036657
39.109798,-0.031769
39.1198,-0.031769
39.129798,-0.031769
39.139801,-0.041544
39.149799,-0.036657
39.159805,-0.031769
39.169811,-0.031769
39.179813,-0.031769
39.189811,-0.036657
39.199817,-0.036657
39.209815,-0.031769
39.219818,-0.031769
39.22982,-0.031769
39.239818,-0.031769
39.249824,-0.036657
39.259826,-0.031769
39.269828,-0.036657
39.27983,-0.041544
39.289833,-0.031769
39.299831,-0.031769
39.309833,-0.036657
39.319835,-0.031769
39.329841,-0.026882
39.339839,-0.031769
39.349838,-0.031769
39.35984,-0.031769
39.369842,-0.036657
39.379844,-0.026882
39.389846,-0.041544
39.399848,-0.031769
39.409847,-0.031769
39.419849,-0.036657
39.429855,-0.026882
39.439857,-0.031769
39.449855,-0.036657
39.459861,-0.021994
39.469863,-0.026882
39.479873,-0.031769
39.489871,-0.026882
39.49987,-0.031769
39.509872,-0.031769
39.51987,-0.021994
39.529876,-0.026882
39.539878,-0.026882
39.549884,-0.026882
39.559883,-0.026882
39.569889,-0.026882
39.579887,-0.026882
39.589893,-0.036657
39.599891,-0.021994
39.609893,-0.026882
39.619892,-0.026882
39.629894,-0.021994
39.6399,-0.031769
39.649898,-0.026882
39.659904,-0.026882
39.669906,-0.026882
39.679912,-0.031769
39.68991,-0.026882
39.699913,-0.031769
39.709915,-0.031769
39.719917,-0.012219
39.729915,-0.026882
39.739921,-0.026882
39.749923,-0.026882
39.759929,-0.026882
39.769931,-0.026882
39.779937,-0.026882
39.789936,-0.031769
39.799934,-0.021994
39.80994,-0.026882
39.819938,-0.021994
39.829952,-0.026882
39.83995,-0.031769
39.849952,-0.031769
39.859954,-0.026882
39.869956,-0.026882
39.879959,-0.026882
39.889965,-0.026882
39.899967,-0.026882
39.909973,-0.017107
39.919971,-0.021994
39.929977,-0.021994
39.939983,-0.017107
39.949985,-0.026882
39.959983,-0.021994
39.969982,-0.017107
39.979991,-0.026882
39.990001,-0.021994
40,-0.021994
40.009998,-0.021994
40.02,-0.012219
40.030002,-0.017107
40.040008,-0.026882
40.05001,-0.012219
40.060012,-0.017107
40.070011,-0.021994
40.080013,-0.017107
40.090011,-0.017107
40.100013,-0.021994
40.110012,-0.017107
40.12001,-0.026882
40.130012,-0.012219
40.140014,-0.021994
40.150016,-0.026882
40.160015,-0.021994
40.170017,-0.017107
40.180019,-0.026882
40.190025,-0.021994
40.200023,-0.026882
40.210029,-0.021994
40.220031,-0.017107
40.230037,-0.026882
40.240039,-0.021994
40.250049,-0.021994
40.260051,-0.031769
40.270057,-0.026882
40.280063,-0.036657
40.290069,-0.05132
40.300071,-0.041544
40.310077,-0.05132
40.320075,-0.05132
40.330074,-0.046432
40.340076,-0.05132
40.350074,-0.046432
40.36008,-0.036657
40.370079,-0.036657
40.380081,-0.036657
40.390083,-0.036657
40.400089,-0.031769
40.410087,-0.031769
40.420097,-0.026882
40.430103,-0.031769
40.440109,-0.026882
40.450111,-0.021994
40.460121,-0.021994
40.470119,-0.017107
40.480121,-0.007331
40.490123,-0.017107
40.500125,-0.012219
40.510131,-0.017107
40.520137,-0.017107
40.530136,-0.012219
40.540138,-0.021994
40.55014,-0.012219
40.560146,-0.007331
40.570148,-0.017107
40.580146,-0.012219
40.590148,-0.007331
40.600151,-0.007331
40.610153,-0.012219
40.620155,-0.012219
40.630161,-0.021994
40.640159,-0.012219
40.650161,-0.012219
40.660163,-0.012219
40.670169,-0.007331
40.680168,-0.012219
40.690166,-0.017107
40.700176,-0.012219
40.710178,-0.012219
40.720184,-0.007331
40.730182,-0.012219
40.740188,-0.021994
40.750186,-0.012219
40.760189,-0.017107
40.770187,-0.002444
40.780193,-0.012219
40.790191,-0.017107
40.800197,-0.012219
40.810199,-0.007331
40.820201,-0.017107
40.830204,-0.017107
40.840206,-0.017107
40.850208,-0.012219
40.860206,-0.007331
40.870212,-0.002444
40.88021,-0.017107
40.890216,-0.012219
40.900222,-0.012219
40.910228,-0.007331
40.920227,-0.012219
40.930233,-0.002444
40.940235,-0.012219
40.950241,-0.012219
40.960243,-0.012219
40.970249,-0.007331
40.980247,-0.007331
40.990249,-0.012219
41.000251,-0.007331
41.010257,-0.012219
41.020256,-0.012219
41.030258,-0.007331
41.040264,-0.012219
41.050266,-0.012219
41.060272,-0.007331
41.070278,-0.007331
41.080284,-0.017107
41.090286,-0.012219
41.100288,-0.007331
41.11029,-0.002444
41.1203,-0.002444
41.130298,-0.017107
41.1403,-0.017107
41.150299,-0.012219
41.160305,-0.012219
41.170303,-0.012219
41.180313,-0.007331
41.190315,-0.021994
41.200317,-0.007331
41.210319,-0.017107
41.220321,-0.012219
41.230319,-0.007331
41.240322,-0.012219
41.250324,-0.007331
41.260322,-0.002444
41.270328,-0.007331
41.280326,-0.017107
41.290332,-0.007331
41.300331,-0.012219
41.310337,-0.007331
41.320339,-0.007331
41.330348,-0.012219
41.340351,-0.007331
41.35036,-0.007331
41.360363,-0.012219
41.370365,-0.002444
41.380367,-0.017107
41.390369,-0.017107
41.400371,-0.002444
41.410373,-0.007331
41.420372,-0.007331
41.430374,-0.012219
41.440376,-0.012219
41.450374,-0.012219
41.460376,-0.002444
41.470375,-0.012219
41.480381,-0.007331
41.490379,-0.012219
41.500381,-0.012219
41.510387,-0.007331
41.520389,-0.012219
41.530387,-0.012219
41.540386,-0.002444
41.550392,-0.012219
41.560394,-0.007331
41.5704,-0.007331
41.580398,-0.012219
41.590404,-0.012219
41.60041,-0.002444
41.610416,-0.007331
41.620418,-0.012219
41.630424,-0.007331
41.640422,-0.012219
41.650424,-0.012219
41.66043,-0.002444
41.670433,-0.012219
41.680435,-0.002444
41.690441,-0.012219
41.700443,-0.012219
41.710449,-0.007331
41.720451,-0.012219
41.730453,-0.012219
41.740451,-0.007331
41.750461,-0.007331
41.760463,-0.007331
41.770465,-0.002444
41.780464,-0.017107
41.790466,-0.012219
41.800468,-0.007331
41.810474,-0.007331
41.820476,-0.007331
41.830478,-0.007331
41.84048,-0.007331
41.850482,-0.002444
41.860488,-0.002444
41.870494,-0.007331
41.880504,-0.002444
41.890502,-0.007331
41.900508,-0.002444
41.910507,0.002444
41.920513,-0.012219
41.930511,-0.007331
41.940517,-0.007331
41.950515,-0.007331
41.960521,0.002444
41.970527,-0.012219
41.980533,-0.012219
41.990535,-0.007331
42.000541,-0.012219
42.01054,-0.012219
42.020542,-0.012219
42.030548,-0.017107
42.040546,-0.012219
42.050552,-0.012219
42.06055,-0.017107
42.070552,-0.012219
42.080554,-0.007331
42.090564,-0.007331
42.100563,-0.007331
42.110569,0.002444
42.120571,-0.007331
42.130577,-0.007331
42.140579,-0.007331
42.150585,-0.002444
42.160583,0.007331
42.170589,-0.007331
42.180591,-0.002444
42.190593,-0.002444
42.200599,-0.002444
42.210601,-0.002444
42.220603,-0.002444
42.230602,-0.007331
42.240604,-0.002444
42.250602,-0.007331
42.260608,-0.002444
42.270606,-0.007331
42.280612,-0.002444
42.290622,-0.007331
42.300628,-0.002444
42.310634,-0.002444
42.32064,-0.007331
42.330642,-0.002444
42.340648,-0.007331
42.350646,-0.002444
42.360656,0.002444
42.370658,-0.012219
42.380664,-0.002444
42.390663,-0.002444
42.400665,-0.007331
42.410667,-0.002444
42.420673,-0.002444
42.430675,-0.007331
42.440681,0.002444
42.450683,-0.007331
42.460689,-0.007331
42.470687,-0.007331
42.480686,-0.012219
42.490692,-0.007331
42.500694,-0.007331
42.5107,-0.007331
42.520698,-0.007331
42.530704,-0.007331
42.540706,-0.007331
42.550708,-0.002444
42.560707,-0.012219
42.570709,-0.012219
42.580711,-0.002444
42.590713,-0.012219
42.600715,-0.007331
42.610717,-0.002444
42.620719,-0.007331
42.630718,-0.002444
42.640724,-0.007331
42.650722,-0.007331
42.660728,-0.002444
42.670726,-0.002444
42.680728,-0.007331
42.690727,0.002444
42.700733,-0.002444
42.710731,-0.007331
42.720733,-0.002444
42.730739,-0.002444
42.740745,-0.002444
42.750751,0.002444
42.760757,-0.002444
42.770759,-0.007331
42.780765,-0.002444
42.790763,-0.007331
42.800769,-0.002444
42.810771,-0.002444
42.82077,-0.012219
42.830776,-0.002444
42.840774,-0.007331
42.850776,-0.002444
42.860774,0.002444
42.87078,-0.012219
42.880783,-0.012219
42.890792,0.002444
42.900794,-0.007331
42.9108,0.002444
42.920803,-0.007331
42.930805,-0.012219
42.940803,0.002444
42.950809,-0.007331
42.960811,-0.007331
42.970821,-0.007331
42.980823,-0.007331
42.990825,-0.007331
43.000823,0.002444
43.010826,0.002444
43.020832,-0.007331
43.03083,-0.007331
43.040832,-0.007331
43.050834,-0.002444
43.06084,0.002444
43.070842,-0.012219
43.080852,-0.002444
43.090854,0.002444
43.10086,-0.007331
43.110862,-0.007331
43.120868,-0.012219
43.130867,-0.007331
43.140869,-0.007331
43.150871,0.002444
43.160873,0.002444
43.170871,-0.007331
43.180877,-0.007331
43.190879,0.002444
43.200885,-0.002444
43.210884,-0.007331
43.220882,-0.007331
43.230888,-0.002444
43.24089,-0.007331
43.250892,0.002444
43.26089,-0.007331
43.270893,-0.012219
43.280895,-0.002444
43.290897,-0.002444
43.300899,-0.007331
43.310905,0.012219
43.320903,-0.007331
43.330902,-0.007331
43.340904,0.002444
43.350902,-0.002444
43.360904,-0.002444
43.370906,-0.007331
43.380912,-0.012219
43.390911,-0.002444
43.400913,-0.002444
43.410915,-0.002444
43.420925,-0.002444
43.430927,-0.002444
43.440929,-0.007331
43.450927,-0.002444
43.460929,-0.007331
43.470928,-0.007331
43.480926,-0.002444
43.490932,0.002444
43.50093,-0.002444
43.510936,-0.002444
43.520935,-0.007331
43.530941,-0.002444
43.540939,-0.002444
43.550945,-0.007331
43.560943,-0.002444
43.570949,-0.007331
43.580951,-0.007331
43.590953,-0.002444
43.600955,-0.002444
43.610958,-0.007331
43.62096,0.002444
43.630962,-0.007331
43.640964,-0.002444
43.650962,-0.002444
43.660964,-0.007331
43.670974,-0.002444
43.680976,-0.007331
43.690975,-0.007331
43.700977,0.002444
43.710975,-0.002444
43.720977,-0.017107
43.730979,-0.002444
43.740978,-0.007331
43.750984,-0.007331
43.760982,-0.002444
43.770984,-0.012219
43.780986,-0.002444
43.790988,-0.002444
43.800987,-0.002444
43.810997,0.002444
43.820999,-0.007331
43.831008,-0.012219
43.841011,-0.007331
43.851016,-0.007331
43.861019,-0.007331
43.871021,-0.007331
43.881019,-0.017107
43.891021,-0.012219
43.901023,-0.012219
43.911029,-0.012219
43.921031,-0.017107
43.93103,-0.007331
43.941032,-0.012219
43.95103,-0.007331
43.961036,-0.012219
43.971038,-0.017107
43.981048,-0.012219
43.99105,-0.007331
44.001052,-0.012219
44.011054,-0.007331
44.021057,-0.012219
44.031059,-0.012219
44.041069,-0.002444
44.051067,0.002444
44.061073,-0.002444
44.071079,-0.002444
44.081081,-0.007331
44.091083,-0.002444
44.101089,0.002444
44.111091,-0.002444
44.121097,-0.007331
44.131095,-0.002444
44.141094,-0.007331
44.1511,0.007331
44.161102,-0.002444
44.171108,-0.007331
44.181106,-0.007331
44.191108,-0.002444
44.201114,-0.002444
44.211116,-0.002444
44.221118,-0.007331
44.231121,-0.007331
44.241127,-0.002444
44.251129,-0.002444
44.261127,-0.002444
44.271129,-0.002444
44.281127,-0.007331
44.291126,-0.002444
44.301136,-0.002444
44.311138,-0.002444
44.32114,-0.002444
44.331138,-0.002444
44.34114,-0.002444
44.351142,0.002444
44.361156,-0.007331
44.371154,-0.002444
44.381156,-0.002444
44.391155,-0.007331
44.401161,-0.002444
44.411163,-0.007331
44.421169,-0.012219
44.431175,-0.002444
44.441177,-0.002444
44.451175,-0.002444
44.461177,0.002444
44.471179,-0.007331
44.481182,-0.007331
44.491188,0.002444
44.501186,-0.007331
44.511192,-0.002444
44.52119,0.002444
44.531196,-0.002444
44.541198,0.002444
44.5512,-0.002444
44.561203,-0.007331
44.571208,-0.007331
44.581211,0.002444
44.591217,-0.002444
44.601215,-0.002444
44.611217,-0.002444
44.621219,-0.007331
44.631225,-0.002444
44.641231,0.002444
44.651237,-0.007331
44.661239,0.002444
44.671245,-0.007331
44.681247,-0.002444
44.691253,-0.002444
44.701251,-0.002444
44.71125,-0.002444
44.721252,-0.002444
44.731254,-0.007331
44.741256,-0.002444
44.751255,-0.002444
44.761257,-0.007331
44.771255,-0.007331
44.781257,-0.002444
44.791259,-0.002444
44.801261,0.002444
44.811264,-0.002444
44.821262,-0.007331
44.831264,0.002444
44.84127,-0.002444
44.851272,-0.007331
44.86127,-0.002444
44.871273,-0.007331
44.881275,0.002444
44.891277,-0.002444
44.901275,-0.002444
44.911281,-0.002444
44.921287,-0.007331
44.931289,-0.002444
44.941291,-0.002444
44.95129,-0.002444
44.961296,-0.007331
44.971298,-0.007331
44.9813,-0.012219
44.991306,-0.007331
45.001312,-0.007331
45.01131,-0.012219
45.021312,-0.002444
45.031314,-0.002444
45.04132,-0.007331
45.051326,-0.002444
45.061332,-0.007331
45.071331,-0.007331
45.081336,0.002444
45.091339,-0.002444
45.101348,-0.002444
45.111351,0.002444
45.121353,-0.012219
45.131351,-0.002444
45.141357,0.007331
45.151355,-0.007331
45.161361,-0.002444
45.17136,-0.007331
45.181358,-0.002444
45.19136,-0.007331
45.201362,-0.002444
45.211368,-0.002444
45.221374,0.002444
45.231384,-0.007331
45.241382,-0.017107
45.251388,-0.017107
45.261394,-0.031769
45.271396,-0.031769
45.281402,-0.031769
45.291404,-0.031769
45.301403,-0.036657
45.311405,-0.031769
45.321407,-0.036657
45.331413,-0.026882
45.341411,-0.021994
45.351413,-0.026882
45.361415,-0.017107
45.371421,-0.017107
45.38142,-0.012219
45.391422,-0.007331
45.401428,-0.012219
45.411426,-0.007331
45.421432,-0.007331
45.43143,-0.012219
45.441436,0.002444
45.451435,-0.007331
45.461441,-0.012219
45.471439,-0.002444
45.481445,-0.007331
45.491447,-0.007331
45.501457,-0.002444
45.511455,-0.002444
45.521461,-0.007331
45.531459,-0.002444
45.541458,-0.002444
45.55146,-0.002444
45.561462,0.002444
45.571468,-0.007331
45.58147,-0.007331
45.591472,0.002444
45.60147,-0.007331
45.611476,0.002444
45.621475,-0.007331
45.631481,-0.007331
45.641479,-0.002444
45.651485,-0.007331
45.661487,-0.007331
45.671493,-0.007331
45.681495,-0.007331
45.691501,-0.012219
45.701499,-0.007331
45.711498,-0.017107
45.721504,-0.017107
45.731502,-0.012219
45.741504,-0.017107
45.751502,-0.012219
45.761505,-0.007331
45.771507,-0.026882
45.781509,-0.012219
45.791511,-0.012219
45.801521,-0.017107
45.811527,-0.012219
45.821537,-0.012219
45.831535,-0.012219
45.841537,-0.007331
45.851535,-0.007331
45.861534,-0.012219
45.871536,-0.007331
45.881534,-0.012219
45.89154,-0.012219
45.901542,-0.007331
45.911544,-0.017107
45.921546,-0.007331
45.931549,-0.007331
45.941551,-0.012219
45.951557,-0.002444
45.961559,-0.007331
45.971561,-0.012219
45.981567,-0.007331
45.991573,-0.012219
46.001575,-0.007331
46.011577,-0.012219
46.021575,-0.021994
46.031581,-0.012219
46.041584,-0.017107
46.051582,-0.017107
46.061588,-0.017107
46.071586,-0.017107
46.081588,-0.017107
46.091587,-0.012219
46.101589,-0.012219
46.111591,-0.017107
46.121597,-0.007331
46.131595,-0.017107
46.141597,-0.017107
46.151599,-0.002444
46.161605,-0.021994
46.171604,-0.021994
46.181606,-0.012219
46.191608,-0.021994
46.20161,-0.012219
46.211612,-0.017107
46.221614,-0.021994
46.23162,-0.012219
46.241622,-0.021994
46.251628,-0.021994
46.261627,-0.017107
46.271629,-0.026882
46.281631,-0.021994
46.291637,-0.012219
46.301635,-0.017107
46.311641,-0.017107
46.321643,-0.017107
46.331642,-0.017107
46.341644,-0.017107
46.351642,-0.012219
46.361644,-0.017107
46.371646,-0.012219
46.381652,-0.017107
46.391651,-0.021994
46.401653,0.002444
46.411655,-0.021994
46.421661,-0.017107
46.431663,-0.012219
46.441665,-0.017107
46.451663,-0.012219
46.461666,-0.012219
46.471668,-0.021994
46.481666,-0.007331
46.491668,-0.017107
46.50167,-0.017107
46.511672,-0.012219
46.521671,-0.017107
46.531673,-0.017107
46.541675,-0.017107
46.551681,-0.017107
46.561683,-0.021994
46.571685,-0.017107
46.581687,-0.012219
46.591693,-0.017107
46.601699,-0.012219
46.611705,-0.021994
46.621707,-0.017107
46.631706,-0.017107
46.641712,-0.021994
46.651718,-0.012219
46.661724,-0.021994
46.671733,-0.021994
46.681732,-0.012219
46.691734,-0.017107
46.70174,-0.017107
46.711742,-0.012219
46.721744,-0.017107
46.731746,-0.017107
46.741748,-0.017107
46.75175,-0.021994
46.761756,-0.021994
46.771759,-0.021994
46.781764,-0.017107
46.791763,-0.017107
46.801769,-0.012219
46.811775,-0.021994
46.821781,-0.017107
46.831779,-0.017107
46.841785,-0.017107
46.851783,-0.007331
46.861789,-0.017107
46.871791,-0.017107
46.88179,-0.017107
46.891796,-0.017107
46.901798,-0.012219
46.9118,-0.017107
46.921798,-0.017107
46.9318,-0.007331
46.941802,-0.017107
46.951805,-0.021994
46.961803,-0.007331
46.971809,-0.012219
46.981811,-0.017107
46.991821,-0.012219
47.001823,-0.012219
47.011829,-0.017107
47.021827,-0.017107
47.031829,-0.021994
47.041828,-0.012219
47.05183,-0.007331
47.061836,-0.017107
47.071838,-0.017107
47.08184,-0.017107
47.091838,-0.021994
47.10184,-0.012219
47.111843,-0.017107
47.121856,-0.017107
47.131858,-0.012219
47.14186,-0.017107
47.151859,-0.017107
47.161869,-0.012219
47.171871,-0.017107
47.181877,-0.017107
47.191883,-0.012219
47.201889,-0.017107
47.211887,-0.012219
47.221889,-0.017107
47.231887,-0.021994
47.241886,-0.007331
47.251888,-0.012219
47.26189,-0.021994
47.271892,-0.012219
47.28189,-0.017107
47.2919,-0.012219
47.301898,-0.012219
47.311901,-0.017107
47.321903,-0.012219
47.331905,-0.012219
47.341907,-0.017107
47.351913,-0.012219
47.361911,-0.007331
47.37191,-0.021994
47.381916,-0.017107
47.391918,-0.017107
47.40192,-0.017107
47.411918,-0.017107
47.421924,-0.021994
47.431922,-0.021994
47.441928,-0.012219
47.451927,-0.021994
47.461929,-0.017107
47.471931,-0.012219
47.481933,-0.021994
47.491935,-0.017107
47.501941,-0.012219
47.51194,-0.021994
47.521938,-0.017107
47.531948,-0.012219
47.541946,-0.021994
47.551952,-0.012219
47.56195,-0.012219
47.57196,-0.021994
47.581962,-0.017107
47.591968,-0.017107
47.601966,-0.021994
47.611972,-0.017107
47.621971,-0.026882
47.631973,-0.026882
47.641971,-0.021994
47.651981,-0.036657
47.661983,-0.026882
47.671985,-0.021994
47.681983,-0.026882
47.691982,-0.021994
47.701984,-0.021994
47.711986,-0.026882
47.721992,-0.017107
47.731994,-0.017107
47.742,-0.017107
47.752002,-0.012219
47.762008,-0.021994
47.772006,-0.021994
47.782009,-0.012219
47.792007,-0.017107
47.802009,-0.017107
47.812011,-0.012219
47.822013,-0.021994
47.832012,-0.017107
47.842014,-0.012219
47.852016,-0.021994
47.862014,-0.021994
47.87202,-0.017107
47.882022,-0.021994
47.892028,-0.012219
47.90203,-0.021994
47.912036,-0.017107
47.922035,-0.017107
47.932037,-0.017107
47.942039,-0.017107
47.952049,-0.017107
47.962051,-0.021994
47.972053,-0.017107
47.982051,-0.012219
47.992057,-0.017107
48.002059,-0.017107
48.012065,-0.017107
48.022064,-0.021994
48.032062,-0.012219
48.042064,-0.021994
48.052066,-0.017107
48.062068,-0.021994
48.072071,-0.021994
48.082077,-0.017107
48.092079,-0.012219
48.102081,-0.021994
48.112079,-0.012219
48.122081,-0.017107
48.132083,-0.021994
48.142082,-0.012219
48.152088,-0.017107
48.162086,-0.021994
48.172092,-0.017107
48.18209,-0.021994
48.192092,-0.017107
48.202091,-0.012219
48.212093,-0.021994
48.222091,-0.017107
48.232093,-0.017107
48.242095,-0.021994
48.252101,-0.021994
48.2621,-0.017107
48.272106,-0.021994
48.282108,-0.017107
48.292106,-0.017107
48.302108,-0.017107
48.31211,-0.021994
48.322113,-0.021994
48.332111,-0.021994
48.342113,-0.017107
48.352119,-0.021994
48.362125,-0.021994
48.372123,-0.012219
48.382129,-0.026882
48.392127,-0.017107
48.40213,-0.021994
48.412136,-0.026882
48.422134,-0.017107
48.43214,-0.017107
48.442142,-0.017107
48.452148,-0.012219
48.46215,-0.021994
48.472152,-0.021994
48.482151,-0.017107
48.492156,-0.017107
48.502155,-0.021994
48.512157,-0.021994
48.522159,-0.021994
48.532161,-0.017107
48.542163,-0.017107
48.552162,-0.026882
48.562168,-0.012219
48.572177,-0.017107
48.58218,-0.017107
48.592182,-0.012219
48.602188,-0.021994
48.612186,-0.021994
48.622196,-0.007331
48.632194,-0.021994
48.642196,-0.017107
48.652198,-0.017107
48.6622,-0.021994
48.672199,-0.017107
48.682205,-0.002444
48.692207,-0.012219
48.702217,-0.017107
48.712215,-0.021994
48.722225,-0.017107
48.732227,-0.012219
48.742233,-0.012219
48.752235,-0.021994
48.762237,-0.012219
48.772239,-0.012219
48.782245,-0.012219
48.792243,-0.012219
48.802242,-0.017107
48.812248,-0.007331
48.822246,-0.017107
48.832248,-0.017107
48.842247,-0.012219
48.852249,-0.017107
48.862247,-0.017107
48.872249,-0.012219
48.882251,-0.012219
48.892257,-0.017107
48.902256,-0.012219
48.912254,-0.017107
48.92226,-0.017107
48.932262,-0.012219
48.942264,-0.012219
48.952266,-0.012219
48.962268,-0.007331
48.972267,-0.017107
48.982269,-0.007331
48.992267,-0.002444
49.002273,-0.017107
49.012271,-0.012219
49.022277,-0.012219
49.032276,-0.012219
49.042278,-0.002444
49.052288,-0.017107
49.062286,-0.017107
49.072296,-0.007331
49.082294,-0.012219
49.0923,-0.017107
49.102298,-0.012219
49.112304,-0.017107
49.122303,-0.007331
49.132305,-0.012219
49.142307,-0.012219
49.152309,-0.017107
49.162307,-0.017107
49.172309,-0.017107
49.182308,-0.012219
49.192306,-0.007331
49.202308,-0.017107
49.21231,-0.012219
49.222312,-0.012219
49.232318,-0.012219
49.242321,-0.007331
49.252323,-0.021994
49.262325,-0.012219
49.272327,-0.012219
49.282329,-0.007331
49.292331,-0.002444
49.302333,-0.012219
49.312339,-0.017107
49.322345,-0.007331
49.332344,-0.007331
49.342342,-0.007331
49.352344,-0.007331
49.362342,-0.012219
49.372344,-0.012219
49.382347,-0.007331
49.392353,-0.007331
49.402351,-0.012219
49.412357,-0.002444
49.422355,-0.007331
49.432357,-0.002444
49.442356,-0.002444
49.452358,-0.012219
49.462364,-0.007331
49.472366,-0.007331
49.482368,0.002444
49.49237,-0.002444
49.502376,-0.012219
49.512374,-0.007331
49.522377,-0.002444
49.532375,-0.017107
49.542381,-0.002444
49.552379,-0.007331
49.562381,-0.012219
49.57238,-0.002444
49.582382,-0.007331
49.592388,-0.007331
49.602386,-0.007331
49.612392,-0.002444
49.62239,-0.007331
49.632396,-0.002444
49.642395,-0.012219
49.652397,-0.017107
49.662399,-0.002444
49.672405,-0.012219
49.682407,-0.017107
49.692413,-0.012219
49.702411,-0.021994
49.712417,-0.017107
49.722419,-0.012219
49.732421,-0.012219
49.742424,-0.017107
49.752422,-0.017107
49.762428,-0.017107
49.77243,-0.012219
49.782432,-0.012219
49.79243,-0.012219
49.802433,-0.012219
49.812431,-0.021994
49.822437,-0.012219
49.832435,-0.002444
49.842437,-0.007331
49.852436,-0.012219
49.862434,-0.012219
49.872436,-0.012219
49.882438,-0.007331
49.89244,-0.007331
49.902439,-0.012219
49.912441,-0.012219
49.922439,-0.002444
49.932445,-0.012219
49.942443,-0.007331
49.952442,-0.012219
49.962444,-0.007331
49.972446,-0.007331
49.982452,-0.007331
49.99245,-0.012219
50.002452,-0.012219
50.012451,-0.017107
50.022457,-0.012219
50.032455,-0.002444
50.042457,-0.007331
50.052459,-0.007331
50.062469,-0.017107
50.072467,-0.012219
50.082466,-0.007331
50.092479,-0.007331
50.102481,-0.012219
50.11248,-0.007331
50.122482,-0.012219
50.132484,-0.007331
50.142486,-0.012219
50.152492,-0.017107
50.162494,-0.012219
50.1725,-0.012219
50.182498,-0.017107
50.192504,-0.021994
50.202507,-0.026882
50.212516,-0.036657
50.222515,-0.031769
50.232517,-0.031769
50.242515,-0.036657
50.252521,-0.036657
50.262519,-0.041544
50.272518,-0.036657
50.28252,-0.026882
50.292522,-0.036657
50.302528,-0.026882
50.312526,-0.026882
50.322532,-0.026882
50.332538,-0.021994
50.342544,-0.017107
50.352546,-0.026882
50.362556,-0.017107
50.372554,-0.017107
50.382556,-0.017107
50.392562,-0.007331
50.402568,-0.021994
50.41257,-0.017107
50.422573,-0.012219
50.432575,-0.012219
50.442577,-0.007331
50.452575,-0.012219
50.462581,-0.017107
50.472579,-0.007331
50.482585,-0.007331
50.492584,-0.007331
50.502586,-0.012219
50.512588,-0.007331
50.522586,-0.012219
50.532588,-0.012219
50.542591,-0.007331
50.552593,-0.012219
50.562595,-0.012219
50.572597,-0.017107
50.582599,-0.007331
50.592605,-0.007331
50.602607,-0.021994
50.612609,-0.012219
50.622608,-0.002444
50.632606,-0.012219
50.642608,-0.002444
50.652614,-0.017107
50.66262,-0.007331
50.672622,-0.007331
50.682624,-0.012219
50.692626,-0.012219
50.702629,-0.012219
50.712631,-0.012219
50.722633,-0.012219
50.732631,-0.002444
50.742633,-0.012219
50.752632,-0.007331
50.76263,-0.012219
50.772632,-0.012219
50.78263,0.002444
50.792633,-0.012219
50.802631,-0.017107
50.812641,-0.012219
50.822647,-0.007331
50.832649,-0.012219
50.842651,-0.007331
50.852657,-0.012219
50.862659,-0.012219
50.872661,-0.007331
50.882663,-0.007331
50.892669,-0.002444
50.902671,-0.012219
50.912677,-0.007331
50.922679,-0.007331
50.932685,-0.012219
50.942684,-0.012219
50.952682,-0.007331
50.962688,-0.007331
50.97269,-0.012219
50.982692,0.002444
50.992694,-0.012219
51.0027,-0.012219
51.012706,-0.007331
51.022708,-0.012219
51.032711,-0.007331
51.042713,-0.012219
51.052715,-0.017107
51.062717,-0.012219
51.072719,-0.007331
51.082721,-0.012219
51.09272,-0.002444
51.102722,-0.017107
51.112728,-0.017107
51.122737,-0.007331
51.13274,-0.012219
51.142742,-0.012219
51.152751,-0.007331
51.16275,-0.017107
51.172752,-0.012219
51.18275,-0.012219
51.192752,-0.012219
51.202754,-0.012219
51.21276,-0.007331
51.222766,-0.012219
51.232772,-0.007331
51.242774,-0.007331
51.252777,-0.017107
51.262775,-0.007331
51.272785,-0.007331
51.282783,-0.007331
51.292789,-0.007331
51.302791,-0.012219
51.312793,-0.007331
51.322792,-0.012219
51.33279,-0.012219
51.342792,-0.007331
51.35279,-0.012219
51.3628,-0.017107
51.372798,-0.007331
51.382804,-0.007331
51.392803,-0.012219
51.402809,-0.007331
51.412811,-0.012219
51.422817,-0.012219
51.432815,-0.007331
51.442817,-0.012219
51.452819,-0.012219
51.462818,-0.002444
51.472827,-0.007331
51.482833,-0.002444
51.492835,-0.007331
51.502834,-0.017107
51.512836,-0.012219
51.522838,-0.007331
51.532844,-0.007331
51.542842,-0.007331
51.552845,-0.002444
51.56285,-0.007331
51.57286,-0.007331
51.582862,-0.012219
51.592868,-0.012219
51.602867,-0.017107
51.612869,-0.017107
51.622871,-0.017107
51.632877,-0.012219
51.642875,-0.021994
51.652881,-0.021994
51.662879,-0.017107
51.672878,-0.017107
51.68288,-0.007331
51.692878,-0.017107
51.70288,-0.021994
51.712882,-0.017107
51.722892,-0.012219
51.732894,-0.017107
51.7429,-0.012219
51.752906,-0.017107
51.762908,-0.017107
51.772907,-0.007331
51.782909,-0.012219
51.792907,-0.007331
51.802913,-0.012219
51.812911,-0.012219
51.82291,-0.012219
51.832912,-0.007331
51.84291,-0.017107
51.852916,-0.007331
51.862918,-0.012219
51.872924,-0.002444
51.882923,-0.002444
51.892925,-0.012219
51.902923,-0.012219
51.912929,-0.007331
51.922935,-0.012219
51.932941,0.002444
51.942939,-0.007331
51.952945,-0.017107
51.962944,-0.002444
51.972946,-0.007331
51.982948,-0.002444
51.992946,-0.002444
52.002948,-0.012219
52.01295,-0.012219
52.022953,0.002444
52.032958,0.002444
52.042964,-0.007331
52.052967,-0.007331
52.062969,-0.012219
52.072967,-0.007331
52.082969,-0.012219
52.092971,-0.017107
52.10297,-0.007331
52.112976,-0.007331
52.122978,-0.012219
52.132984,-0.007331
52.14299,-0.012219
52.152992,-0.012219
52.16299,-0.002444
52.172992,-0.007331
52.182998,-0.012219
52.193,-0.012219
52.203002,-0.012219
52.213008,-0.012219
52.223011,-0.012219
52.233013,-0.012219
52.243011,-0.012219
52.253013,-0.012219
52.263011,-0.017107
52.273017,-0.007331
52.28302,-0.012219
52.293022,-0.017107
52.303024,-0.007331
52.31303,-0.007331
52.323032,-0.007331
52.333034,-0.002444
52.343044,-0.012219
52.353046,-0.012219
52.363048,-0.007331
52.373046,-0.012219
52.383049,-0.002444
52.393047,-0.012219
52.403049,-0.017107
52.413047,0.002444
52.423046,-0.012219
52.433048,-0.007331
52.443046,-0.007331
52.453048,-0.012219
52.463054,-0.012219
52.473056,-0.007331
52.483055,-0.012219
52.493057,-0.012219
52.503055,-0.007331
52.513061,-0.017107
52.523063,-0.012219
52.533065,-0.007331
52.543067,-0.017107
52.553073,-0.002444
52.563072,-0.012219
52.57307,-0.012219
52.583072,-0.002444
52.59307,-0.012219
52.603076,-0.017107
52.613079,-0.012219
52.623085,-0.007331
52.633083,-0.002444
52.643093,-0.007331
52.653099,-0.012219
52.663105,-0.012219
52.673107,-0.012219
52.683109,-0.012219
52.693111,-0.007331
52.703113,-0.012219
52.713115,-0.007331
52.723117,-0.002444
52.733119,-0.007331
52.743118,-0.012219
52.75312,-0.002444
52.763118,-0.007331
52.77312,-0.012219
52.783119,-0.002444
52.793125,-0.012219
52.803123,-0.012219
52.813125,-0.007331
52.823127,-0.017107
52.833133,-0.007331
52.843135,-0.007331
52.853141,-0.017107
52.86314,-0.002444
52.873142,-0.007331
52.883144,-0.002444
52.893146,-0.002444
52.903148,-0.012219
52.91315,-0.012219
52.923152,-0.007331
52.933151,-0.007331
52.943157,-0.007331
52.953159,-0.007331
52.963165,-0.012219
52.973163,-0.007331
52.983173,-0.012219
52.993175,-0.021994
53.003177,-0.012219
53.013179,-0.007331
53.023178,-0.012219
53.03318,-0.007331
53.043182,-0.012219
53.053184,-0.012219
53.063182,-0.007331
53.073188,-0.017107
53.083187,-0.007331
53.093196,-0.007331
53.103199,-0.017107
53.113204,-0.012219
53.123203,-0.002444
53.133213,-0.012219
53.143211,-0.012219
53.153217,-0.017107
53.163215,-0.012219
53.173217,-0.007331
53.183219,-0.012219
53.193225,-0.017107
53.203231,-0.012219
53.21323,-0.017107
53.223232,-0.007331
53.233234,-0.007331
53.243236,-0.017107
53.253234,-0.012219
53.263236,-0.012219
53.273235,-0.012219
53.283241,0.002444
53.293247,-0.007331
53.303256,-0.012219
53.313255,-0.007331
53.323257,-0.012219
53.333255,-0.012219
53.343265,-0.002444
53.353267,-0.012219
53.363269,-0.007331
53.373275,-0.007331
53.383285,-0.012219
53.393283,-0.017107
53.403289,-0.012219
53.413288,-0.017107
53.42329,-0.007331
53.4333,-0.012219
53.443302,-0.017107
53.453304,-0.007331
53.463306,-0.012219
53.473312,-0.012219
53.48331,-0.012219
53.493312,-0.017107
53.503318,-0.017107
53.51332,-0.012219
53.523319,-0.012219
53.533321,-0.012219
53.543323,-0.021994
53.553325,-0.021994
53.563327,-0.017107
53.573333,-0.007331
53.583335,-0.021994
53.593341,-0.017107
53.60334,-0.021994
53.613342,-0.021994
53.623348,-0.017107
53.63335,-0.017107
53.643356,-0.021994
53.653358,-0.017107
53.66336,-0.017107
53.673358,-0.017107
53.683364,-0.007331
53.693367,-0.021994
53.703372,-0.021994
53.713371,-0.017107
53.723377,-0.012219
53.733375,-0.007331
53.743377,-0.017107
53.753379,-0.017107
53.763378,-0.007331
53.773384,-0.012219
53.783386,-0.012219
53.793388,-0.007331
53.80339,-0.017107
53.813392,-0.017107
53.82339,-0.012219
53.8334,-0.017107
53.843399,-0.012219
53.853404,-0.012219
53.863403,-0.017107
53.873405,-0.012219
53.883407,-0.017107
53.893413,-0.021994
53.903415,-0.017107
53.913421,-0.017107
53.923419,-0.012219
53.933425,-0.012219
53.943424,-0.017107
53.953422,-0.017107
53.963424,-0.012219
53.973434,-0.012219
53.983436,-0.017107
53.993438,-0.012219
54.003444,-0.021994
54.013442,-0.012219
54.023452,-0.012219
54.033454,-0.017107
54.04346,-0.017107
54.053462,-0.021994
54.063472,-0.012219
54.073471,-0.012219
54.083473,-0.021994
54.093475,-0.017107
54.103477,-0.017107
54.113479,-0.017107
54.123481,-0.021994
54.133483,-0.012219
54.143482,-0.021994
54.153484,-0.012219
54.163482,-0.017107
54.173488,-0.012219
54.18349,-0.012219
54.193496,-0.017107
54.203498,-0.012219
54.2135,-0.012219
54.223499,-0.012219
54.233501,-0.017107
54.243503,-0.012219
54.253505,-0.012219
54.263504,-0.017107
54.273502,-0.012219
54.283504,-0.017107
54.293506,-0.017107
54.303508,-0.017107
54.31351,-0.017107
54.323516,-0.012219
54.333518,-0.012219
54.343524,-0.021994
54.353527,-0.017107
54.363536,-0.017107
54.373538,-0.017107
54.383544,-0.007331
54.393547,-0.017107
54.403549,-0.017107
54.413551,-0.017107
54.423557,-0.021994
54.433559,-0.017107
54.443565,-0.017107
54.453563,-0.026882
54.463569,-0.017107
54.473567,-0.007331
54.483577,-0.021994
54.493576,-0.017107
54.503578,-0.021994
54.51358,-0.021994
54.523578,-0.012219
54.53358,-0.021994
54.543579,-0.021994
54.553585,-0.012219
54.563587,-0.017107
54.573593,-0.017107
54.583595,-0.017107
54.593601,-0.017107
54.603607,-0.021994
54.613609,-0.012219
54.623611,-0.021994
54.633617,-0.007331
54.643615,-0.021994
54.653617,-0.021994
54.663619,-0.012219
54.673622,-0.017107
54.683628,-0.021994
54.69363,-0.017107
54.703636,-0.021994
54.713638,-0.017107
54.723644,-0.012219
54.733642,-0.026882
54.743648,-0.017107
54.75365,-0.021994
54.763652,-0.017107
54.773654,-0.012219
54.78366,-0.017107
54.793666,-0.021994
54.803672,-0.017107
54.813674,-0.021994
54.82368,-0.017107
54.833683,-0.017107
54.843688,-0.021994
54.853694,-0.017107
54.863697,-0.017107
54.873699,-0.017107
54.883701,-0.021994
54.893699,-0.017107
54.903701,-0.021994
54.913703,-0.007331
54.923717,-0.017107
54.933715,-0.026882
54.943721,-0.017107
54.953723,-0.021994
54.963729,-0.017107
54.973731,-0.017107
54.983734,-0.021994
54.993736,-0.021994
55.003734,-0.021994
55.013736,-0.017107
55.023735,-0.017107
55.033737,-0.017107
55.043735,-0.026882
55.053737,-0.017107
55.063735,-0.021994
55.073738,-0.021994
55.08374,-0.021994
55.093742,-0.021994
55.103752,-0.021994
55.11375,-0.017107
55.123752,-0.017107
55.133754,-0.021994
55.143756,-0.012219
55.153759,-0.021994
55.163764,-0.017107
55.173763,-0.017107
55.183769,-0.031769
55.193771,-0.021994
55.203781,-0.031769
55.213779,-0.036657
55.223785,-0.026882
55.233787,-0.046432
55.243793,-0.056207
55.253791,-0.046432
55.26379,-0.05132
55.273796,-0.046432
55.283794,-0.041544
55.293796,-0.046432
55.303794,-0.041544
55.313796,-0.031769
55.323795,-0.036657
55.333801,-0.036657
55.343803,-0.031769
55.353805,-0.031769
55.363803,-0.021994
55.373802,-0.021994
55.383804,-0.036657
55.393806,-0.026882
55.403812,-0.026882
55.41381,-0.026882
55.423812,-0.017107
55.433811,-0.031769
55.443817,-0.026882
55.453819,-0.026882
55.463825,-0.031769
55.473823,-0.026882
55.483829,-0.026882
55.493831,-0.031769
55.503833,-0.021994
55.513835,-0.021994
55.523841,-0.026882
55.533843,-0.026882
55.543846,-0.026882
55.553848,-0.026882
55.563846,-0.021994
55.573848,-0.021994
55.583847,-0.021994
55.593849,-0.021994
55.603855,-0.021994
55.613864,-0.017107
55.623867,-0.017107
55.633869,-0.026882
55.643871,-0.017107
55.653877,-0.017107
55.663875,-0.021994
55.673881,-0.012219
55.683883,-0.017107
55.693889,-0.026882
55.703887,-0.012219
55.713886,-0.012219
55.723892,-0.017107
55.733898,-0.017107
55.7439,-0.012219
55.753898,-0.012219
55.763904,-0.012219
55.77391,-0.017107
55.783916,-0.017107
55.793914,-0.017107
55.80392,-0.021994
55.813926,-0.012219
55.823932,-0.012219
55.833934,-0.026882
55.84394,-0.012219
55.853939,-0.017107
55.863948,-0.017107
55.873954,-0.007331
55.88396,-0.021994
55.893959,-0.021994
55.903961,-0.007331
55.913963,-0.012219
55.923969,-0.017107
55.933967,-0.017107
55.943969,-0.026882
55.953968,-0.012219
55.963977,-0.017107
55.973979,-0.012219
55.983985,-0.012219
55.993984,-0.017107
56.003982,-0.017107
56.013984,-0.007331
56.023983,-0.017107
56.033985,-0.021994
56.043987,-0.012219
56.053993,-0.017107
56.063995,-0.012219
56.073997,-0.012219
56.083999,-0.021994
56.094001,-0.012219
56.104003,-0.012219
56.114002,-0.012219
56.124004,-0.012219
56.134002,-0.021994
56.144008,-0.017107
56.154006,-0.012219
56.164012,-0.021994
56.174015,-0.017107
56.184017,-0.012219
56.194015,-0.021994
56.204021,-0.017107
56.214027,-0.017107
56.224033,-0.021994
56.234035,-0.017107
56.244037,-0.021994
56.254035,-0.026882
56.264034,-0.012219
56.27404,-0.017107
56.284038,-0.021994
56.29404,-0.017107
56.304039,-0.017107
56.314048,-0.021994
56.32405,-0.017107
56.334056,-0.021994
56.344058,-0.021994
56.354061,-0.017107
56.364063,-0.017107
56.374069,-0.007331
56.384071,-0.017107
56.394073,-0.021994
56.404075,-0.012219
56.414081,-0.021994
56.424083,-0.021994
56.434085,-0.017107
56.444084,-0.021994
56.45409,-0.021994
56.464096,-0.017107
56.474098,-0.017107
56.4841,-0.021994
56.494102,-0.017107
56.504108,-0.017107
56.51411,-0.017107
56.524112,-0.017107
56.534118,-0.026882
56.54412,-0.017107
56.554122,-0.017107
56.564125,-0.021994
56.574123,-0.017107
56.584125,-0.017107
56.594123,-0.017107
56.604129,-0.017107
56.614128,-0.017107
56.62413,-0.007331
56.634132,-0.017107
56.64413,-0.021994
56.654132,-0.017107
56.664131,-0.012219
56.674137,-0.017107
56.684139,-0.021994
56.694141,-0.021994
56.704139,-0.021994
56.714141,-0.012219
56.724143,-0.012219
56.734146,-0.026882
56.744148,-0.017107
56.75415,-0.017107
56.764156,-0.012219
56.774154,-0.021994
56.784156,-0.026882
56.794158,-0.012219
56.804161,-0.012219
56.814163,-0.012219
56.824169,-0.012219
56.834167,-0.017107
56.844169,-0.017107
56.854167,-0.017107
56.864173,-0.012219
56.874176,-0.017107
56.884178,-0.017107
56.894184,-0.012219
56.904186,-0.012219
56.914192,-0.017107
56.92419,-0.017107
56.934196,-0.021994
56.944198,-0.017107
56.9542,-0.012219
56.964202,-0.017107
56.974205,-0.017107
56.984203,-0.021994
56.994205,-0.012219
57.004207,-0.021994
57.014209,-0.017107
57.024208,-0.017107
57.034206,-0.017107
57.044212,-0.017107
57.05421,-0.012219
57.064212,-0.021994
57.074211,-0.017107
57.084213,-0.017107
57.094211,-0.017107
57.104213,-0.012219
57.114219,-0.002444
57.124225,-0.021994
57.134227,-0.017107
57.144229,-0.012219
57.154228,-0.017107
57.164226,-0.012219
57.174232,-0.017107
57.184234,-0.021994
57.19424,-0.017107
57.204242,-0.017107
57.214248,-0.007331
57.224246,-0.012219
57.234252,-0.021994
57.244251,-0.017107
57.254257,-0.012219
57.264255,-0.021994
57.274257,-0.017107
57.284259,-0.017107
57.294258,-0.021994
57.304264,-0.012219
57.314262,-0.017107
57.324268,-0.021994
57.33427,-0.021994
57.344272,-0.017107
57.35427,-0.017107
57.364276,-0.017107
57.374279,-0.026882
57.384288,-0.031769
57.394287,-0.021994
57.404289,-0.026882
57.414291,-0.026882
57.424293,-0.026882
57.434299,-0.031769
57.444305,-0.021994
57.454307,-0.021994
57.464317,-0.017107
57.474319,-0.012219
57.484325,-0.021994
57.494327,-0.017107
57.504329,-0.017107
57.514335,-0.017107
57.524341,-0.012219
57.534339,-0.017107
57.544345,-0.017107
57.554347,-0.012219
57.564346,-0.012219
57.574348,-0.021994
57.58435,-0.017107
57.594356,-0.017107
57.604354,-0.021994
57.614356,-0.007331
57.624359,-0.017107
57.634365,-0.026882
57.644363,-0.012219
57.654369,-0.012219
57.664371,-0.007331
57.674377,-0.017107
57.684379,-0.017107
57.694385,-0.017107
57.704383,-0.017107
57.714389,-0.017107
57.724391,-0.017107
57.734397,-0.017107
57.7444,-0.021994
57.754398,-0.012219
57.7644,-0.002444
57.774402,-0.017107
57.784408,-0.017107
57.794406,-0.012219
57.804412,-0.017107
57.814414,-0.007331
57.824417,-0.017107
57.834419,-0.012219
57.844421,-0.012219
57.854419,-0.012219
57.864421,-0.012219
57.87442,-0.007331
57.884426,-0.021994
57.894432,-0.017107
57.904434,-0.012219
57.914436,-0.017107
57.924438,-0.012219
57.934444,-0.017107
57.944442,-0.012219
57.954444,-0.007331
57.964443,-0.017107
57.974449,-0.012219
57.984451,-0.012219
57.994453,-0.012219
58.004459,-0.012219
58.014465,-0.007331
58.024467,-0.017107
58.034473,-0.012219
58.044471,-0.017107
58.054477,-0.012219
58.064476,-0.002444
58.074485,-0.012219
58.084487,-0.017107
58.094486,-0.012219
58.104492,-0.012219
58.114494,-0.012219
58.124496,-0.012219
58.134498,-0.021994
58.144504,-0.012219
58.154502,-0.012219
58.164508,-0.012219
58.17451,-0.012219
58.184513,-0.007331
58.194515,-0.012219
58.204521,-0.017107
58.214519,-0.017107
58.224525,-0.021994
58.234523,-0.012219
58.244529,-0.017107
58.254531,-0.017107
58.26453,-0.017107
58.274536,-0.026882
58.284538,-0.021994
58.294544,-0.017107
58.304542,-0.021994
58.314548,-0.012219
58.324546,-0.017107
58.334548,-0.026882
58.344547,-0.012219
58.354549,-0.017107
58.364551,-0.017107
58.374557,-0.017107
58.384555,-0.021994
58.394561,-0.017107
58.404563,-0.017107
58.414562,-0.012219
58.424568,-0.017107
58.434566,-0.017107
58.444568,-0.017107
58.454566,-0.007331
58.464569,-0.007331
58.474575,-0.021994
58.484577,-0.012219
58.494579,-0.012219
58.504581,-0.012219
58.514583,-0.017107
58.524585,-0.026882
58.534584,-0.021994
58.544582,-0.017107
58.554588,-0.021994
58.56459,-0.012219
58.574596,-0.021994
58.584598,-0.026882
58.5946,-0.021994
58.604602,-0.021994
58.614604,-0.017107
58.624603,-0.017107
58.634609,-0.021994
58.644615,-0.017107
58.664619,-0.012219
58.674629,-0.021994
58.684635,-0.017107
58.694641,-0.021994
58.704639,-0.017107
58.714645,-0.017107
58.724643,-0.021994
58.734649,-0.021994
58.744647,-0.017107
58.754646,-0.017107
58.764652,-0.012219
58.774654,-0.021994
58.784656,-0.021994
58.794654,-0.012219
58.80466,-0.017107
58.814662,-0.017107
58.824665,-0.012219
58.834667,-0.017107
58.844673,-0.017107
58.854675,-0.017107
58.864681,-0.017107
58.874679,-0.012219
58.884681,-0.017107
58.894683,-0.017107
58.904689,-0.012219
58.914691,-0.007331
58.92469,-0.021994
58.934692,-0.012219
58.94469,-0.012219
58.954692,-0.017107
58.964694,-0.012219
58.974697,-0.012219
58.984699,-0.017107
58.994701,-0.007331
59.004703,-0.017107
59.014709,-0.012219
59.024707,-0.007331
59.034713,-0.017107
59.044719,-0.012219
59.054721,-0.007331
59.064723,-0.017107
59.074722,-0.012219
59.084728,-0.017107
59.09473,-0.017107
59.104736,-0.007331
59.114742,-0.007331
59.124744,-0.017107
59.134746,-0.017107
59.144748,-0.017107
59.154747,-0.017107
59.164749,-0.012219
59.174747,-0.021994
59.184753,-0.017107
59.194759,-0.017107
59.204765,-0.021994
59.214763,-0.017107
59.224765,-0.021994
59.234767,-0.026882
59.244773,-0.017107
59.254776,-0.021994
59.264778,-0.021994
59.274784,-0.017107
59.284786,-0.017107
59.294792,-0.017107
59.30479,-0.012219
59.314792,-0.021994
59.324794,-0.017107
59.334804,-0.012219
59.344806,-0.017107
59.354812,-0.002444
59.36481,-0.017107
59.374816,-0.021994
59.384815,-0.012219
59.394821,-0.017107
59.404819,-0.012219
59.414825,-0.007331
59.424823,-0.007331
59.434829,-0.012219
59.444828,-0.002444
59.45483,-0.012219
59.464832,-0.007331
59.47483,-0.002444
59.48484,-0.012219
59.494842,-0.007331
59.504844,-0.012219
59.514842,-0.012219
59.524845,-0.012219
59.534843,-0.012219
59.544849,-0.012219
59.554847,-0.007331
59.564853,-0.012219
59.574851,-0.012219
59.584854,-0.007331
59.594863,-0.002444
59.604862,-0.012219
59.614864,-0.002444
59.624862,-0.012219
59.634868,-0.007331
59.644866,-0.007331
59.654869,-0.007331
59.664867,-0.002444
59.674869,-0.002444
59.684871,-0.012219
59.694877,0.002444
59.704879,-0.007331
59.714881,-0.012219
59.724884,-0.007331
59.734882,0.002444
59.744888,0.002444
59.754886,-0.002444
59.764892,-0.007331
59.77489,-0.012219
59.784893,-0.007331
59.794895,-0.012219
59.804901,-0.007331
59.814899,-0.007331
59.824901,-0.012219
59.834903,-0.002444
59.844905,-0.007331
59.854904,-0.007331
59.864902,-0.002444
59.874912,-0.007331
59.88491,-0.007331
59.894912,-0.007331
59.904914,-0.007331
59.91492,-0.007331
59.924926,-0.002444
59.934932,-0.012219
59.944931,-0.007331
59.954936,-0.007331
59.964939,-0.012219
59.974941,-0.002444
59.984939,-0.007331
59.994949,-0.012219
60.004955,0.002444
60.014961,-0.007331
60.024963,-0.007331
60.034969,-0.002444
60.044975,-0.002444
60.054981,-0.007331
60.064987,-0.007331
60.074993,-0.012219
60.084995,-0.002444
60.094997,-0.007331
60.104999,-0.007331
60.115001,-0.007331
60.125,-0.002444
60.135002,-0.007331
60.145008,-0.007331
60.155006,-0.002444
60.165012,-0.007331
60.17501,-0.002444
60.185012,-0.007331
60.195011,-0.002444
60.205017,0.002444
60.215019,-0.007331
60.225021,-0.002444
60.235019,-0.002444
60.245025,-0.007331
60.255027,0.002444
60.265029,-0.012219
60.275032,-0.021994
60.28503,-0.021994
60.295032,-0.031769
60.305034,-0.036657
60.31504,-0.036657
60.325038,-0.036657
60.335044,-0.031769
60.345043,-0.021994
60.355045,-0.026882
60.365043,-0.021994
60.375045,-0.021994
60.385044,-0.021994
60.395042,-0.012219
60.405048,-0.012219
60.415046,-0.017107
60.425052,-0.002444
60.435054,-0.007331
60.44506,-0.007331
60.455062,-0.002444
60.465065,-0.007331
60.475067,-0.002444
60.485073,0.002444
60.495071,-0.007331
60.505073,0.002444
60.515071,-0.002444
60.52507,-0.002444
60.535076,-0.002444
60.545078,-0.002444
60.555084,-0.002444
60.565086,-0.002444
60.575088,-0.002444
60.585086,-0.007331
60.595096,-0.002444
60.605098,-0.002444
60.615104,-0.012219
60.625106,-0.002444
60.635112,0.002444
60.645114,-0.002444
60.655117,0.002444
60.665119,-0.012219
60.675128,-0.002444
60.685131,-0.002444
60.695137,0.002444
60.705135,-0.002444
60.715141,-0.002444
60.725143,-0.007331
60.735145,-0.007331
60.745151,-0.002444
60.755153,0.002444
60.765155,-0.002444
60.775154,-0.007331
60.78516,-0.007331
60.795162,-0.002444
60.805164,-0.002444
60.815166,-0.002444
60.825172,-0.002444
60.835174,-0.002444
60.845176,0.002444
60.855175,0.002444
60.86518,-0.007331
60.875179,-0.007331
60.885185,-0.007331
60.895187,-0.007331
60.905189,0.002444
60.915187,-0.007331
60.925193,-0.002444
60.935195,-0.002444
60.945194,-0.002444
60.955196,0.002444
60.965194,-0.002444
60.975196,-0.007331
60.985195,-0.002444
60.995197,-0.002444
61.005195,-0.002444
61.015197,-0.002444
61.025199,-0.002444
61.035198,-0.007331
61.0452,-0.002444
61.055198,0.002444
61.065204,-0.007331
61.075202,0.002444
61.085208,-0.007331
61.095211,0.002444
61.105216,0.012219
61.115215,-0.007331
61.125221,-0.012219
61.135227,-0.007331
61.145229,-0.012219
61.155227,0.002444
61.165237,-0.012219
61.175239,-0.012219
61.185241,-0.002444
61.195247,-0.007331
61.205249,-0.007331
61.215248,-0.012219
61.225246,-0.012219
61.235256,-0.007331
61.245254,-0.002444
61.25526,-0.002444
61.265266,-0.002444
61.275272,0.002444
61.285274,-0.007331
61.295276,0.002444
61.305278,0.002444
61.31528,-0.007331
61.325283,-0.002444
61.335289,-0.002444
61.345287,-0.002444
61.355297,0.007331
61.365295,-0.007331
61.375305,0.002444
61.385307,0.002444
61.395313,-0.002444
61.405311,0.007331
61.415317,0.002444
61.425315,-0.007331
61.435314,0.002444
61.44532,-0.002444
61.455318,-0.002444
61.465324,-0.007331
61.475326,-0.002444
61.485328,-0.002444
61.49533,0.007331
61.505336,-0.002444
61.515335,-0.007331
61.525341,-0.002444
61.535343,0.002444
61.545349,0.002444
61.555351,0.007331
61.565353,-0.007331
61.575351,-0.002444
61.585357,0.002444
61.595359,-0.007331
61.605365,-0.002444
61.615367,-0.002444
61.625373,0.002444
61.635375,-0.002444
61.645378,-0.002444
61.655384,-0.002444
61.665382,0.002444
61.675388,-0.002444
61.685386,0.007331
61.695388,0.002444
61.70539,-0.002444
61.715393,-0.007331
61.725395,-0.002444
61.735397,-0.007331
61.745399,0.002444
61.755401,-0.002444
61.765399,-0.012219
61.775405,-0.002444
61.785408,-0.002444
61.795406,0.002444
61.805412,0.007331
61.815414,-0.007331
61.82542,-0.007331
61.835418,-0.002444
61.84542,-0.002444
61.855422,-0.002444
61.865428,-0.002444
61.875427,-0.012219
61.885429,-0.002444
61.895435,-0.002444
61.905437,-0.007331
61.915435,-0.002444
61.925434,-0.002444
61.935436,-0.007331
61.945438,0.002444
61.95544,-0.002444
61.965438,-0.007331
61.975444,-0.002444
61.98545,-0.007331
61.995456,0.002444
62.005458,-0.007331
62.01546,-0.012219
62.025459,-0.002444
62.035465,-0.002444
62.045463,-0.007331
62.055465,-0.002444
62.065471,-0.012219
62.075473,-0.012219
62.085472,-0.007331
62.095474,-0.017107
62.105476,-0.017107
62.115474,-0.017107
62.125476,-0.021994
62.135475,-0.026882
62.145477,-0.021994
62.155475,-0.026882
62.165485,-0.026882
62.175483,-0.026882
62.185489,-0.026882
62.195487,-0.021994
62.205486,-0.017107
62.215492,-0.026882
62.225494,-0.021994
62.235496,-0.017107
62.245494,-0.017107
62.2555,-0.017107
62.265499,-0.017107
62.275505,-0.012219
62.285503,-0.012219
62.295505,-0.012219
62.305503,-0.017107
62.315502,-0.012219
62.325504,-0.017107
62.335506,-0.012219
62.345508,-0.007331
62.35551,-0.017107
62.365516,-0.012219
62.375514,-0.017107
62.385517,-0.017107
62.395515,-0.017107
62.405521,-0.021994
62.415523,-0.031769
62.425525,-0.021994
62.435523,-0.026882
62.445533,-0.017107
62.455532,-0.026882
62.46553,-0.036657
62.475532,-0.021994
62.485534,-0.021994
62.495544,-0.021994
62.505542,-0.017107
62.515552,-0.017107
62.525554,-0.017107
62.53556,-0.007331
62.545558,-0.012219
62.555564,-0.017107
62.565563,-0.012219
62.575565,-0.017107
62.585567,-0.012219
62.595573,-0.007331
62.605575,-0.017107
62.615581,-0.012219
62.625579,-0.017107
62.635585,-0.012219
62.645587,-0.012219
62.655586,-0.007331
62.665588,-0.017107
62.67559,-0.007331
62.685596,-0.012219
62.695594,-0.012219
62.7056,-0.012219
62.715602,-0.017107
62.725605,-0.012219
62.735603,-0.012219
62.745609,-0.002444
62.755615,-0.012219
62.765621,-0.007331
62.775619,-0.007331
62.785625,-0.002444
62.795627,-0.002444
62.805629,-0.017107
62.815628,-0.007331
62.825637,-0.007331
62.835639,-0.007331
62.845645,-0.002444
62.855648,-0.012219
62.865657,-0.017107
62.875656,-0.002444
62.885658,-0.012219
62.895664,-0.012219
62.905666,-0.007331
62.915672,-0.021994
62.92567,-0.007331
62.935672,-0.012219
62.945671,-0.012219
62.955673,-0.012219
62.965675,-0.012219
62.975677,-0.017107
62.985679,-0.007331
62.995685,-0.007331
63.005683,-0.012219
63.015689,-0.012219
63.025691,-0.017107
63.035694,-0.017107
63.0457,-0.017107
63.055698,-0.021994
63.065704,-0.021994
63.075702,-0.017107
63.085704,-0.021994
63.095706,-0.017107
63.105709,-0.017107
63.115711,-0.026882
63.125713,-0.007331
63.135711,-0.021994
63.145717,-0.017107
63.155715,-0.012219
63.165721,-0.026882
63.175724,-0.012219
63.185726,-0.007331
63.195728,-0.017107
63.20573,-0.012219
63.215732,-0.012219
63.225734,-0.017107
63.23574,-0.007331
63.245738,-0.007331
63.255744,-0.017107
63.265743,-0.012219
63.275749,-0.012219
63.285747,-0.007331
63.295753,-0.007331
63.305751,-0.012219
63.31575,-0.007331
63.325756,-0.007331
63.335754,-0.007331
63.345756,-0.012219
63.355754,-0.012219
63.365756,-0.012219
63.375759,-0.012219
63.385761,-0.007331
63.395759,-0.007331
63.405765,-0.007331
63.415767,-0.012219
63.425769,-0.007331
63.435775,-0.012219
63.445781,-0.012219
63.45578,-0.012219
63.465778,-0.007331
63.47578,-0.012219
63.485778,-0.007331
63.49578,-0.007331
63.505779,-0.017107
63.515781,-0.012219
63.525779,-0.012219
63.535781,-0.012219
63.545787,-0.007331
63.555793,-0.012219
63.565795,-0.012219
63.575794,-0.012219
63.585796,-0.007331
63.595798,-0.012219
63.6058,-0.012219
63.615802,-0.012219
63.625808,-0.012219
63.635807,-0.007331
63.645812,-0.017107
63.655815,-0.012219
63.665824,-0.012219
63.675834,-0.017107
63.68584,-0.012219
63.695842,-0.007331
63.705844,-0.021994
63.71585,-0.012219
63.72586,-0.007331
63.735862,-0.012219
63.745868,-0.007331
63.755867,-0.017107
63.765869,-0.021994
63.775871,-0.007331
63.785873,-0.007331
63.795875,-0.012219
63.805877,-0.007331
63.815879,-0.017107
63.825878,-0.012219
63.835884,-0.007331
63.845886,-0.017107
63.855888,-0.012219
63.865886,-0.017107
63.875896,-0.012219
63.885894,-0.002444
63.895896,-0.012219
63.905895,-0.012219
63.915901,-0.007331
63.925899,-0.012219
63.935901,-0.002444
63.945903,-0.007331
63.955902,-0.012219
63.965904,-0.007331
63.975902,-0.012219
63.985904,-0.012219
63.995906,-0.012219
64.005905,-0.017107
64.015914,-0.017107
64.025909,-0.007331
64.035919,-0.017107
64.045913,-0.017107
64.055915,-0.012219
64.065917,-0.017107
64.075927,-0.012219
64.085922,-0.007331
64.095924,-0.017107
64.105934,-0.017107
64.115936,-0.012219
64.125938,-0.012219
64.13594,-0.007331
64.145942,-0.012219
64.155952,-0.017107
64.165954,-0.007331
64.175956,-0.012219
64.185966,-0.007331
64.195968,-0.007331
64.205978,-0.012219
64.21598,-0.007331
64.225982,-0.002444
64.235984,-0.007331
64.245994,-0.012219
64.255989,-0.007331
64.265998,-0.017107
64.276,-0.007331
64.286003,-0.012219
64.296005,-0.012219
64.306007,-0.007331
64.316009,-0.017107
64.326011,-0.012219
64.336013,-0.007331
64.346008,-0.012219
64.356018,-0.017107
64.366012,-0.007331
64.376022,-0.012219
64.386024,-0.012219
64.396026,-0.002444
64.406021,-0.017107
64.41603,-0.012219
64.426025,-0.002444
64.436035,-0.012219
64.446037,-0.012219
64.456039,-0.012219
64.466041,-0.017107
64.476043,-0.007331
64.486045,-0.012219
64.496047,-0.012219
64.50605,-0.007331
64.516044,-0.012219
64.526046,-0.012219
64.536048,-0.007331
64.546051,-0.017107
64.556053,-0.012219
64.566055,-0.012219
64.576057,-0.012219
64.586059,-0.007331
64.596061,-0.012219
64.606056,-0.017107
64.616065,-0.007331
64.626068,-0.012219
64.63607,-0.012219
64.646072,-0.012219
64.656082,-0.017107
64.666084,-0.012219
64.676086,-0.007331
64.686088,-0.012219
64.69609,-0.007331
64.706092,-0.012219
64.716102,-0.017107
64.726104,-0.012219
64.736106,-0.012219
64.746101,-0.017107
64.756103,-0.012219
64.766105,-0.012219
64.776107,-0.012219
64.786102,-0.012219
64.796104,-0.017107
64.806106,-0.012219
64.816101,-0.007331
64.82611,-0.017107
64.836112,-0.017107
64.846115,-0.017107
64.856117,-0.021994
64.866127,-0.012219
64.876129,-0.007331
64.886131,-0.012219
64.896125,-0.012219
64.906135,-0.012219
64.916137,-0.012219
64.926147,-0.007331
64.936141,-0.007331
64.946144,-0.012219
64.956153,-0.012219
64.966156,-0.021994
64.976158,-0.021994
64.98616,-0.012219
64.996162,-0.026882
65.006156,-0.021994
65.016159,-0.017107
65.026161,-0.021994
65.036163,-0.017107
65.046157,-0.021994
65.056167,-0.021994
65.066162,-0.017107
65.076164,-0.021994
65.086166,-0.021994
65.09616,-0.017107
65.10617,-0.026882
65.116172,-0.021994
65.126182,-0.007331
65.136184,-0.021994
65.146186,-0.007331
65.156188,-0.012219
65.166198,-0.012219
65.176193,-0.007331
65.186195,-0.007331
65.196197,-0.017107
65.206199,-0.012219
65.216201,-0.012219
65.226203,-0.012219
65.236206,-0.007331
65.2462,-0.021994
65.25621,-0.012219
65.266204,-0.012219
65.276206,-0.007331
65.286209,-0.012219
65.296218,-0.012219
65.306221,-0.017107
65.316223,-0.012219
65.326217,-0.017107
65.336219,-0.012219
65.346221,-0.012219
65.356216,-0.017107
65.366218,-0.021994
65.37622,-0.012219
65.386222,-0.012219
65.396224,-0.021994
65.406227,-0.017107
65.416229,-0.017107
65.426239,-0.017107
65.436233,-0.012219
65.446243,-0.017107
65.456245,-0.012219
65.466247,-0.017107
65.476249,-0.017107
65.486251,-0.012219
65.496253,-0.017107
65.506256,-0.017107
65.516258,-0.012219
65.52626,-0.017107
65.536262,-0.012219
65.546264,-0.017107
65.556274,-0.017107
65.566276,-0.012219
65.576278,-0.017107
65.58628,-0.007331
65.59629,-0.017107
65.606292,-0.012219
65.616294,-0.012219
65.626296,-0.007331
65.636299,-0.012219
65.646301,-0.017107
65.656303,-0.007331
65.666305,-0.012219
65.676315,-0.017107
65.686317,-0.007331
65.696319,-0.017107
65.706321,-0.012219
65.716323,-0.012219
65.726325,-0.017107
65.736335,-0.007331
65.746337,-0.012219
65.756347,-0.021994
65.766342,-0.012219
65.776344,-0.012219
65.786346,-0.012219
65.796348,-0.012219
65.806358,-0.007331
65.81636,-0.012219
65.826362,-0.002444
65.836357,-0.012219
65.846366,-0.012219
65.856361,-0.007331
65.866371,-0.017107
65.876373,-0.012219
65.886383,-0.012219
65.896385,-0.017107
65.906394,-0.012219
65.916397,-0.012219
65.926399,-0.017107
65.936401,-0.012219
65.946403,-0.007331
65.956398,-0.007331
65.9664,-0.007331
65.976402,-0.007331
65.986404,-0.007331
65.996406,-0.012219
66.006408,-0.017107
66.01641,-0.012219
66.026412,-0.007331
66.036415,-0.012219
66.046417,-0.012219
66.056419,-0.012219
66.066421,-0.012219
66.076423,-0.012219
66.086425,-0.012219
66.09642,-0.021994
66.10643,-0.021994
66.116432,-0.031769
66.126434,-0.036657
66.136436,-0.036657
66.146438,-0.046432
66.15644,-0.041544
66.166442,-0.036657
66.176445,-0.036657
66.186454,-0.026882
66.196456,-0.031769
66.206459,-0.036657
66.216461,-0.026882
66.226463,-0.021994
66.236465,-0.026882
66.246467,-0.021994
66.256462,-0.021994
66.266464,-0.017107
66.276466,-0.012219
66.286468,-0.021994
66.29647,-0.017107
66.306465,-0.021994
66.316474,-0.012219
66.326477,-0.012219
66.336479,-0.007331
66.346481,-0.021994
66.356483,-0.012219
66.366485,-0.012219
66.376495,-0.007331
66.386489,-0.007331
66.396492,-0.017107
66.406494,-0.017107
66.416488,-0.012219
66.42649,-0.017107
66.436492,-0.012219
66.446502,-0.012219
66.456504,-0.017107
66.466506,-0.012219
66.476509,-0.007331
66.486518,-0.017107
66.49652,-0.012219
66.50653,-0.012219
66.516532,-0.012219
66.526535,-0.007331
66.536537,-0.007331
66.546539,-0.017107
66.556533,-0.012219
66.566535,-0.017107
66.576538,-0.017107
66.58654,-0.007331
66.596542,-0.017107
66.606544,-0.017107
66.616546,-0.012219
66.626548,-0.007331
66.63655,-0.012219
66.646553,-0.021994
66.656555,-0.012219
66.666557,-0.012219
66.676559,-0.012219
66.686553,-0.017107
66.696556,-0.012219
66.706558,-0.017107
66.71656,-0.017107
66.726562,0.002444
66.736564,-0.012219
66.746566,-0.012219
66.756568,-0.007331
66.766571,-0.017107
66.776573,-0.012219
66.786575,-0.012219
66.796577,-0.021994
66.806587,-0.017107
66.816589,-0.021994
66.826591,-0.021994
66.836593,-0.031769
66.846603,-0.041544
66.856597,-0.046432
66.866607,-0.036657
66.876609,-0.041544
66.886619,-0.041544
66.896621,-0.041544
66.906623,-0.041544
66.916625,-0.036657
66.926635,-0.031769
66.93663,-0.041544
66.946632,-0.031769
66.956634,-0.031769
66.966636,-0.031769
66.976638,-0.021994
66.986648,-0.026882
66.99665,-0.031769
67.006652,-0.026882
67.016654,-0.017107
67.026657,-0.021994
67.036659,-0.017107
67.046661,-0.021994
67.056671,-0.017107
67.066665,-0.012219
67.076667,-0.012219
67.086669,-0.012219
67.096679,-0.017107
67.106681,-0.012219
67.116676,-0.007331
67.126686,-0.012219
67.136688,-0.012219
67.14669,-0.007331
67.156692,-0.017107
67.166694,-0.017107
67.176704,0.002444
67.186706,-0.017107
67.196701,-0.012219
67.206703,0.002444
67.216705,-0.012219
67.226715,-0.007331
67.236709,-0.007331
67.246711,-0.017107
67.256713,-0.012219
67.266708,-0.007331
67.27671,-0.012219
67.286712,-0.012219
67.296722,-0.017107
67.306716,-0.017107
67.316719,-0.007331
67.326728,-0.012219
67.336738,-0.012219
67.346733,-0.007331
67.356735,-0.012219
67.366737,-0.002444
67.376739,-0.007331
67.386741,-0.012219
67.396751,-0.012219
67.406753,-0.012219
67.416763,-0.012219
67.426757,-0.007331
67.436759,-0.007331
67.446769,-0.017107
67.456764,-0.012219
67.466766,-0.012219
67.476776,-0.012219
67.486785,-0.007331
67.49678,-0.017107
67.506782,-0.012219
67.516784,-0.012219
67.526794,-0.007331
67.536796,-0.007331
67.546798,-0.007331
67.5568,-0.017107
67.56681,-0.012219
67.576812,-0.012219
67.586814,-0.017107
67.596824,-0.007331
67.606834,-0.012219
67.616828,-0.007331
67.626838,-0.007331
67.636848,-0.017107
67.64685,-0.017107
67.656845,-0.012219
67.666847,-0.012219
67.676849,-0.007331
67.686851,-0.012219
67.696846,-0.021994
67.706855,-0.012219
67.716865,-0.017107
67.726867,-0.026882
67.736862,-0.031769
67.746871,-0.036657
67.756874,-0.041544
67.766868,-0.026882
67.77687,-0.031769
67.78688,-0.036657
67.796882,-0.036657
67.806877,-0.026882
67.816879,-0.021994
67.826889,-0.012219
67.836898,-0.026882
67.846893,-0.012219
67.856895,-0.017107
67.866912,-0.012219
67.876914,-0.017107
67.886909,-0.017107
67.896911,-0.017107
67.906913,-0.012219
67.916923,-0.002444
67.926925,-0.012219
67.936927,-0.007331
67.946929,-0.012219
67.956924,-0.012219
67.966941,-0.007331
67.976943,-0.017107
67.986946,-0.007331
67.99694,-0.017107
68.006942,-0.012219
68.016944,-0.007331
68.026947,-0.012219
68.036941,-0.017107
68.046951,-0.007331
68.056953,-0.012219
68.066955,-0.012219
68.07695,-0.012219
68.086959,-0.017107
68.096961,-0.012219
68.106971,-0.007331
68.116973,-0.017107
68.126976,-0.017107
68.136978,-0.007331
68.146972,-0.017107
68.156974,-0.007331
68.166984,-0.007331
68.176994,-0.021994
68.186988,-0.012219
68.19699,-0.007331
68.207008,-0.012219
68.21701,-0.002444
68.227012,-0.017107
68.237014,-0.012219
68.247016,-0.017107
68.257019,-0.012219
68.267013,-0.017107
68.277023,-0.002444
68.287025,-0.021994
68.297035,-0.012219
68.307037,-0.002444
68.317039,-0.017107
68.327041,-0.012219
68.337043,-0.017107
68.347045,-0.017107
68.357055,-0.012219
68.367057,-0.007331
68.377052,-0.012219
68.387054,-0.007331
68.397056,-0.017107
68.407058,-0.012219
68.41706,-0.007331
68.427062,-0.017107
68.437072,-0.012219
68.447074,-0.012219
68.457069,-0.017107
68.467071,-0.007331
68.477073,-0.007331
68.487083,-0.017107
68.497085,-0.012219
68.507087,-0.012219
68.517089,-0.017107
68.527084,-0.012219
68.537086,-0.012219
68.547088,-0.017107
68.55709,-0.012219
68.567092,-0.017107
68.577102,-0.017107
68.587104,-0.017107
68.597106,-0.017107
68.607101,-0.012219
68.617103,-0.017107
68.627113,-0.026882
68.637123,-0.017107
68.647117,-0.036657
68.657119,-0.041544
68.667121,-0.036657
68.677116,-0.046432
68.687118,-0.05132
68.69712,-0.041544
68.707122,-0.041544
68.717117,-0.036657
68.727127,-0.041544
68.737136,-0.041544
68.747138,-0.036657
68.757133,-0.031769
68.767135,-0.031769
68.777137,-0.026882
68.787132,-0.031769
68.797134,-0.031769
68.807144,-0.021994
68.817146,-0.026882
68.82714,-0.031769
68.83715,-0.012219
68.847152,-0.021994
68.857154,-0.017107
68.867156,-0.012219
68.877166,-0.021994
68.887168,-0.012219
68.897171,-0.012219
68.90718,-0.017107
68.917182,-0.007331
68.927185,-0.021994
68.937187,-0.017107
68.947181,-0.007331
68.957191,-0.017107
68.967193,-0.007331
68.977195,-0.012219
68.987197,-0.017107
68.9972,-0.017107
69.007202,-0.012219
69.017204,-0.012219
69.027214,-0.017107
69.037216,-0.012219
69.047233,-0.021994
69.057235,-0.017107
69.06723,-0.012219
69.077232,-0.021994
69.087234,-0.002444
69.097236,-0.017107
69.107246,-0.021994
69.117248,-0.012219
69.127258,-0.017107
69.13726,-0.017107
69.147262,-0.012219
69.157264,-0.017107
69.167266,-0.012219
69.177268,-0.012219
69.187278,-0.021994
69.19728,-0.012219
69.207283,-0.017107
69.217277,-0.017107
69.227279,-0.012219
69.237281,-0.017107
69.247291,-0.017107
69.257293,-0.007331
69.267295,-0.012219
69.277297,-0.017107
69.287292,-0.007331
69.297302,-0.017107
69.307312,-0.017107
69.317314,-0.002444
69.327308,-0.021994
69.337318,-0.012219
69.34732,-0.012219
69.357322,-0.017107
69.367324,0.002444
69.377326,-0.017107
69.387329,-0.017107
69.397331,-0.007331
69.407325,-0.007331
69.417327,-0.017107
69.42733,-0.007331
69.437324,-0.017107
69.447326,-0.012219
69.457344,-0.007331
69.467346,-0.012219
69.477348,-0.017107
69.48735,-0.021994
69.49736,-0.026882
69.507362,-0.036657
69.517356,-0.041544
69.527366,-0.046432
69.537368,-0.041544
69.54737,-0.041544
69.557373,-0.041544
69.567375,-0.036657
69.577392,-0.046432
69.587394,-0.036657
69.597389,-0.021994
69.607391,-0.031769
69.617393,-0.021994
69.627395,-0.021994
69.63739,-0.031769
69.647392,-0.017107
69.657409,-0.012219
69.667411,-0.017107
69.677406,-0.021994
69.687416,-0.017107
69.697425,-0.017107
69.70742,-0.007331
69.717422,-0.012219
69.727424,-0.017107
69.737426,-0.012219
69.747428,-0.012219
69.757438,-0.007331
69.76744,-0.007331
69.777442,-0.021994
69.787437,-0.012219
69.797439,-0.012219
69.807441,-0.017107
69.817451,-0.002444
69.827453,-0.012219
69.837455,-0.017107
69.847457,-0.007331
69.857452,-0.017107
69.867454,-0.017107
69.877456,-0.007331
69.887458,-0.017107
69.89746,-0.007331
69.907463,-0.007331
69.917472,-0.012219
69.927474,-0.007331
69.937469,-0.007331
69.947479,-0.007331
69.957489,-0.007331
69.967491,-0.007331
69.977485,-0.012219
69.987487,-0.007331
69.997489,-0.007331
70.007484,-0.012219
70.017494,-0.007331
70.027503,-0.012219
70.037506,-0.012219
70.0475,-0.007331
70.057502,-0.007331
70.067504,-0.007331
70.077507,-0.012219
70.087501,-0.012219
70.097518,-0.007331
70.107521,-0.002444
70.117523,-0.012219
70.127517,-0.007331
70.137519,-0.012219
70.147529,-0.017107
70.157539,0.002444
70.167533,-0.012219
70.177536,-0.012219
70.187538,-0.007331
70.197532,-0.012219
70.207542,-0.007331
70.217552,-0.002444
70.227554,-0.017107
70.237548,-0.012219
70.24755,-0.007331
70.257568,-0.012219
70.26757,-0.002444
70.277565,-0.017107
70.287567,-0.012219
70.297569,-0.007331
70.307571,-0.012219
70.317581,-0.012219
70.327583,-0.007331
70.337593,-0.017107
70.347602,-0.007331
70.357597,0.002444
70.367599,-0.012219
70.377601,-0.017107
70.387603,-0.007331
70.397598,-0.012219
70.4076,-0.007331
70.417602,-0.012219
70.427604,-0.012219
70.437606,-0.002444
70.447608,-0.007331
70.457618,-0.012219
70.467613,-0.007331
70.477615,-0.012219
70.487625,-0.007331
70.497634,-0.007331
70.507629,-0.017107
70.517631,-0.017107
70.527633,-0.012219
70.537643,-0.021994
70.547645,-0.012219
70.557647,-0.012219
70.567649,-0.021994
70.577644,-0.017107
70.587646,-0.017107
70.597656,-0.017107
70.607658,-0.012219
70.617652,-0.017107
70.627662,-0.012219
70.637664,-0.002444
70.647666,-0.012219
70.657661,-0.007331
70.667678,-0.002444
70.67768,-0.017107
70.687683,-0.007331
70.697685,-0.002444
70.707695,-0.012219
70.717697,-0.002444
70.727699,-0.012219
70.737693,-0.012219
70.747695,-0.007331
70.757698,-0.007331
70.7677,-0.012219
70.777709,-0.002444
70.787712,-0.012219
70.797714,-0.007331
70.807708,-0.002444
70.81771,-0.012219
70.827713,-0.012219
70.837715,-0.007331
70.847709,-0.007331
70.857719,-0.002444
70.867729,-0.012219
70.877731,-0.017107
70.887725,-0.007331
70.897727,-0.012219
70.907745,-0.007331
70.917747,0.002444
70.927742,-0.012219
70.937751,-0.002444
70.947761,-0.002444
70.957763,-0.007331
70.967758,-0.012219
70.97776,-0.007331
70.98777,-0.012219
70.997764,0.002444
71.007766,-0.002444
71.017776,-0.017107
71.027778,-0.007331
71.037773,-0.007331
71.047775,-0.012219
71.057792,-0.002444
71.067794,-0.007331
71.077789,-0.012219
71.087791,-0.007331
71.097801,-0.007331
71.107803,-0.002444
71.117805,-0.007331
71.127807,-0.012219
71.137809,-0.007331
71.147804,-0.002444
71.157814,-0.007331
71.167816,-0.007331
71.177825,-0.007331
71.18782,-0.012219
71.197822,-0.007331
71.207832,0.002444
71.217842,-0.012219
71.227836,-0.002444
71.237838,-0.007331
71.247848,-0.007331
71.257858,-0.002444
71.267852,-0.007331
71.277854,-0.012219
71.287857,-0.002444
71.297859,-0.007331
71.307853,-0.002444
71.317855,-0.002444
71.327865,-0.012219
71.337875,-0.007331
71.347869,-0.007331
71.357872,-0.012219
71.367874,0.002444
71.377868,-0.007331
71.38787,-0.007331
71.39788,-0.007331
71.407882,-0.007331
71.417877,-0.012219
71.427886,-0.007331
71.437889,-0.007331
71.447891,-0.007331
71.457885,0.002444
71.467887,-0.012219
71.47789,-0.002444
71.487884,-0.007331
71.497886,-0.007331
71.507888,-0.007331
71.517898,-0.007331
71.5279,-0.012219
71.537902,-0.007331
71.547904,-0.007331
71.557907,-0.012219
71.567901,-0.012219
71.577903,-0.017107
71.587905,-0.007331
71.597915,-0.002444
71.607917,-0.007331
71.617919,-0.002444
71.627922,-0.012219
71.637916,-0.012219
71.647918,-0.002444
71.65792,-0.007331
71.667922,-0.007331
71.677925,-0.002444
71.687934,-0.002444
71.697937,-0.002444
71.707939,-0.002444
71.717933,-0.007331
71.727935,-0.007331
71.737937,-0.002444
71.747932,-0.002444
71.757934,-0.007331
71.767936,-0.007331
71.777938,-0.007331
71.78794,-0.002444
71.797943,-0.002444
71.807952,-0.012219
71.817955,-0.007331
71.827949,-0.007331
71.837951,-0.007331
71.847961,-0.007331
71.857971,-0.012219
71.867973,-0.012219
71.877983,-0.002444
71.887985,-0.012219
71.897994,-0.002444
71.907989,-0.002444
71.917999,-0.012219
71.928001,-0.007331
71.938003,0.002444
71.948005,-0.007331
71.958015,-0.007331
71.968017,-0.012219
71.978019,-0.002444
71.988014,-0.002444
71.998016,-0.007331
72.008018,-0.007331
72.018028,-0.007331
72.02803,-0.007331
72.038032,-0.002444
72.048034,-0.002444
72.058029,-0.012219
72.068038,0.002444
72.078048,-0.002444
72.08805,-0.007331
72.098045,0.002444
72.108047,-0.007331
72.118049,-0.007331
72.128067,0.002444
72.138061,-0.007331
72.148063,-0.002444
72.158065,-0.002444
72.16806,-0.002444
72.178062,-0.007331
72.188064,-0.002444
72.198066,0.002444
72.208061,-0.002444
72.218063,-0.002444
72.228065,-0.007331
72.238082,-0.007331
72.248077,-0.007331
72.258079,-0.007331
72.268081,-0.002444
72.278083,-0.007331
72.288078,-0.002444
72.298088,0.002444
72.308097,-0.007331
72.318092,0.002444
72.328094,-0.007331
72.338096,-0.012219
72.348098,-0.002444
72.358093,-0.012219
72.368095,-0.017107
72.378097,-0.017107
72.388099,-0.012219
72.398101,-0.017107
72.408111,-0.021994
72.418113,-0.026882
72.428108,-0.017107
72.43811,-0.012219
72.448112,-0.021994
72.458114,-0.021994
72.468109,-0.021994
72.478118,-0.026882
72.488128,-0.021994
72.49813,-0.021994
72.508125,-0.026882
72.518127,-0.021994
72.528129,-0.021994
72.538139,-0.026882
72.548133,-0.017107
72.558143,-0.031769
72.568145,-0.026882
72.57814,-0.026882
72.588142,-0.021994
72.598144,-0.026882
72.608146,-0.021994
72.618148,-0.031769
72.62815,-0.026882
72.63816,-0.026882
72.648162,-0.031769
72.658157,-0.031769
72.668159,-0.031769
72.678161,-0.036657
72.688163,-0.031769
72.698158,-0.036657
72.708168,-0.036657
72.718177,-0.026882
72.728172,-0.036657
72.738174,-0.031769
72.748176,-0.036657
72.758178,-0.036657
72.768173,-0.036657
72.778175,-0.036657
72.788177,-0.031769
72.798179,-0.031769
72.808174,-0.031769
72.818176,-0.031769
72.828178,-0.021994
72.83818,-0.017107
72.84819,-0.017107
72.858192,-0.021994
72.868194,-0.021994
72.878189,-0.017107
72.888191,-0.012219
72.898193,-0.021994
72.908195,-0.017107
72.918197,-0.017107
72.928199,-0.021994
72.938201,-0.007331
72.948211,-0.012219
72.958206,-0.021994
72.968208,-0.012219
72.978218,-0.017107
72.98822,-0.012219
72.998222,-0.007331
73.008232,-0.017107
73.018234,-0.017107
73.028228,-0.007331
73.038238,-0.012219
73.04824,-0.007331
73.058242,-0.007331
73.068244,-0.017107
73.078254,-0.012219
73.088256,-0.012219
73.098266,-0.012219
73.108268,-0.012219
73.11827,-0.007331
73.128273,-0.021994
73.138282,-0.012219
73.148284,-0.007331
73.158294,-0.017107
73.168304,-0.002444
73.178306,-0.012219
73.188301,-0.012219
73.198303,-0.007331
73.208305,-0.012219
73.218307,-0.012219
73.228309,-0.007331
73.238311,-0.007331
73.248313,-0.012219
73.258308,-0.012219
73.268318,-0.021994
73.27832,-0.002444
73.288322,-0.012219
73.298316,-0.002444
73.308319,-0.017107
73.318321,-0.017107
73.328323,-0.017107
73.338317,-0.012219
73.348327,-0.012219
73.358337,-0.017107
73.368339,-0.012219
73.378334,-0.012219
73.388336,-0.007331
